Time (ms),Stress (kPa)
0.0309999,0.8503531
0.0319999,0.936167
0.0329999,1.021981
0.0339999,1.107795
0.0349999,1.193609
0.0359999,1.279422
0.0369999,1.365236
0.0379999,1.45105
0.0389999,1.536864
0.0399999,1.622678
0.0409999,1.708492
0.0419999,1.794306
0.0429999,1.880119
0.0439999,1.965933
0.0449999,2.051747
0.0459999,2.137561
0.0469999,2.223375
0.0479999,2.309189
0.0489999,2.395003
0.0499999,2.480817
0.0509999,2.56663
0.0519999,2.652444
0.0529999,2.738258
0.0539999,2.824072
0.0549999,2.909886
0.0559999,2.9957
0.0569999,3.081514
0.0579999,3.167327
0.0589999,3.253141
0.0599999,3.338955
0.0609999,3.424769
0.0619999,3.510583
0.0629999,3.596397
0.0639999,3.682211
0.0649999,3.768024
0.0659999,3.853838
0.0669999,3.939652
0.0679999,4.025466
0.0689999,4.11128
0.0699999,4.197094
0.0709999,4.282908
0.0719999,4.368721
0.0729999,4.454535
0.0739999,4.540349
0.0749999,4.626163
0.0759999,4.711977
0.0769999,4.797791
0.0779999,4.883605
0.0789999,4.969419
0.0799999,5.055232
0.0809999,5.141046
0.0819999,5.22686
0.0829999,5.312674
0.0839999,5.398488
0.0849999,5.484302
0.0859999,5.570116
0.0869999,5.655929
0.0879999,5.741743
0.0889999,5.827557
0.0899999,5.913371
0.0909999,5.999185
0.0919999,6.084999
0.0929999,6.170813
0.0939999,6.256626
0.0949999,6.34244
0.0959999,6.428254
0.0969999,6.514068
0.0979999,6.599882
0.0989999,6.685696
0.0999999,6.77151
0.1009999,6.857323
0.1019999,6.943137
0.1029999,7.028951
0.1039999,7.114765
0.1049999,7.200579
0.1059999,7.286393
0.1069999,7.372207
0.1079999,7.45802
0.1089999,7.543834
0.1099999,7.629648
0.1109999,7.715462
0.1119999,7.801276
0.1129999,7.88709
0.1139999,7.972904
0.1149999,8.058718
0.1159999,8.144531
0.1169999,8.230345
0.1179999,8.316159
0.1189999,8.401973
0.1199999,8.487787
0.1209999,8.573601
0.1219999,8.659415
0.1229999,8.745228
0.1239999,8.831042
0.1249999,8.916856
0.1259999,9.00267
0.1269999,9.088484
0.1279999,9.174298
0.1289999,9.260112
0.1299999,9.345925
0.1309999,9.431739
0.1319999,9.517553
0.1329999,9.603367
0.1339999,9.689181
0.1349999,9.774995
0.1359999,9.860809
0.1369999,9.946622
0.1379999,10.03244
0.1389999,10.11825
0.1399999,10.20406
0.1409999,10.4086
0.1419999,10.61316
0.1429999,10.81773
0.1439999,11.02229
0.1449999,11.22685
0.1459999,11.43141
0.1469999,11.63597
0.1479999,11.84054
0.1489999,12.0451
0.1499999,12.24966
0.1509999,12.45422
0.1519999,12.65879
0.1529999,12.86335
0.1539999,13.06791
0.1549999,13.27247
0.1559999,13.47703
0.1569999,13.6816
0.1579999,13.88616
0.1589999,14.09072
0.1599999,14.29528
0.1609999,14.49984
0.1619999,14.70441
0.1629999,14.90897
0.1639999,15.11353
0.1649999,15.31809
0.1659999,15.52266
0.1669999,15.72722
0.1679999,15.93178
0.1689999,16.13634
0.1699999,16.3409
0.1709999,16.54547
0.1719999,16.75003
0.1729999,16.95459
0.1739999,17.15915
0.1749999,17.36371
0.1759999,17.56828
0.1769999,17.77284
0.1779999,17.9774
0.1789999,18.18196
0.1799999,18.38653
0.1809999,18.59109
0.1819999,18.79565
0.1829999,19.00021
0.1839999,19.20477
0.1849999,19.40934
0.1859999,19.6139
0.1869999,19.81846
0.1879999,20.02302
0.1889999,20.22758
0.1899999,20.43215
0.1909999,20.63671
0.1919999,20.84127
0.1929999,21.04583
0.1939999,21.2504
0.1949999,21.45496
0.1959999,21.65952
0.1969999,21.86408
0.1979999,22.06864
0.1989999,22.27321
0.1999999,22.47777
0.2009999,22.68233
0.2019999,22.88689
0.2029999,23.09145
0.2039999,23.29602
0.2049999,23.50058
0.2059999,23.70514
0.2069999,23.9097
0.2079999,24.11427
0.2089999,24.31883
0.2099999,24.52339
0.2109999,24.72795
0.2119999,24.93251
0.2129999,25.13708
0.2139999,25.34164
0.2149999,25.5462
0.2159999,25.75076
0.2169999,25.95532
0.2179999,26.15989
0.2189999,26.36445
0.2199999,26.56901
0.2209999,26.77357
0.2219999,26.97814
0.2229999,27.1827
0.2239999,27.38726
0.2249999,27.59182
0.2259999,27.79638
0.2269999,28.00095
0.2279999,28.20551
0.2289999,28.41007
0.2299999,28.61463
0.2309999,28.81919
0.2319999,29.02376
0.2329999,29.22832
0.2339999,29.43288
0.2349999,29.63744
0.2359999,29.84201
0.2369999,30.04657
0.2379999,30.25113
0.2389999,30.45569
0.2399999,30.66025
0.2409999,30.86482
0.2419999,31.06938
0.2429999,31.27394
0.2439999,31.4785
0.2449999,31.68306
0.2459999,31.88763
0.2469999,32.09219
0.2479999,32.29675
0.2489999,32.50131
0.2499999,32.70588
0.2509999,33.03046
0.2519999,33.35506
0.2529999,33.67966
0.2539999,34.00426
0.2549999,34.32886
0.2559999,34.65346
0.2569999,34.97807
0.2579999,35.30267
0.2589999,35.62727
0.2599999,35.95187
0.2609999,36.27647
0.2619999,36.60107
0.2629999,36.92567
0.2639999,37.25027
0.2649999,37.57487
0.2659999,37.89947
0.2669999,38.22407
0.2679999,38.54867
0.2689999,38.87327
0.2699999,39.19787
0.2709999,39.52247
0.2719999,39.84707
0.2729999,40.17167
0.2739999,40.49627
0.2749999,40.82087
0.2759999,41.14547
0.2769999,41.47007
0.2779999,41.79467
0.2789999,42.11927
0.2799999,42.44387
0.2809999,42.76847
0.2819999,43.09307
0.2829999,43.41767
0.2839999,43.74227
0.2849999,44.06687
0.2859999,44.39147
0.2869999,44.71607
0.2879999,45.04067
0.2889999,45.36527
0.2899999,45.68987
0.2909999,46.01447
0.2919999,46.33907
0.2929999,46.66367
0.2939999,46.98827
0.2949999,47.31287
0.2959999,47.63748
0.2969999,47.96208
0.2979999,48.28668
0.2989999,48.61128
0.2999999,48.93588
0.3009999,49.26048
0.3019999,49.58508
0.3029999,49.90968
0.3039999,50.23428
0.3049999,50.55888
0.3059999,50.88348
0.3069999,51.20808
0.3079999,51.53268
0.3089999,51.85728
0.3099999,52.18188
0.3109999,52.50648
0.3119999,52.83108
0.3129999,53.15568
0.3139999,53.48028
0.3149999,53.80488
0.3159999,54.12948
0.3169999,54.45408
0.3179999,54.77868
0.3189999,55.10328
0.3199999,55.42788
0.3209999,55.75248
0.3219999,56.07708
0.3229999,56.40168
0.3239999,56.72628
0.3249999,57.05088
0.3259999,57.37548
0.3269999,57.70008
0.3279999,58.02468
0.3289999,58.34928
0.3299999,58.67388
0.3309999,58.99848
0.3319999,59.32308
0.3329999,59.64768
0.3339999,59.97229
0.3349999,60.29689
0.3359999,60.62149
0.3369999,60.94609
0.3379999,61.27069
0.3389999,61.59529
0.3399999,61.91989
0.3409999,62.24449
0.3419999,62.56909
0.3429999,62.89369
0.3439999,63.21829
0.3449999,63.54289
0.3459999,63.86749
0.3469999,64.19209
0.3479999,64.51669
0.3489999,64.84129
0.3499999,65.16589
0.3509999,65.49049
0.3519999,65.81509
0.3529999,66.13969
0.3539999,66.46429
0.3549999,66.78889
0.3559999,67.11349
0.3569999,67.43809
0.3579999,67.76269
0.3589999,68.08729
0.3599999,68.41189
0.3609999,68.73649
0.3619999,69.06109
0.3629999,69.38569
0.3639999,69.71029
0.3649999,70.03489
0.3659999,70.35949
0.3669999,70.68409
0.3679999,71.00869
0.3689999,71.33329
0.3699999,71.65789
0.3709999,71.98249
0.3719999,72.3071
0.3729999,72.6317
0.3739999,72.9563
0.3749999,73.2809
0.3759999,73.78721
0.3769999,74.29355
0.3779999,74.79988
0.3789999,75.30622
0.3799999,75.81255
0.3809999,76.31889
0.3819999,76.82522
0.3829999,77.33155
0.3839999,77.83789
0.3849999,78.34422
0.3859999,78.85056
0.3869999,79.35689
0.3879999,79.86323
0.3889999,80.36956
0.3899999,80.8759
0.3909999,81.38223
0.3919999,81.88857
0.3929999,82.3949
0.3939999,82.90124
0.3949999,83.40757
0.3959999,83.91391
0.3969999,84.42024
0.3979999,84.92657
0.3989999,85.43291
0.3999999,85.93924
0.4009999,86.44558
0.4019999,86.95191
0.4029999,87.45825
0.4039999,87.96458
0.4049999,88.47092
0.4059999,88.97725
0.4069999,89.48359
0.4079999,89.98992
0.4089999,90.49626
0.4099999,91.00259
0.4109999,91.50892
0.4119999,92.01526
0.4129999,92.52159
0.4139999,93.02793
0.4149999,93.53426
0.4159999,94.0406
0.4169999,94.54693
0.4179999,95.05327
0.4189999,95.5596
0.4199999,96.06594
0.4209999,96.57227
0.4219999,97.07861
0.4229999,97.58494
0.4239999,98.09128
0.4249999,98.59761
0.4259999,99.10394
0.4269999,99.61028
0.4279999,100.1166
0.4289999,100.6229
0.4299999,101.1293
0.4309999,101.6356
0.4319999,102.142
0.4329999,102.6483
0.4339999,103.1546
0.4349999,103.661
0.4359999,104.1673
0.4369999,104.6736
0.4379999,105.18
0.4389999,105.6863
0.4399999,106.1926
0.4409999,106.699
0.4419999,107.2053
0.4429999,107.7116
0.4439999,108.218
0.4449999,108.7243
0.4459999,109.2306
0.4469999,109.737
0.4479999,110.2433
0.4489999,110.7496
0.4499999,111.256
0.4509999,111.7623
0.4519999,112.2686
0.4529999,112.775
0.4539999,113.2813
0.4549999,113.7876
0.4559999,114.294
0.4569999,114.8003
0.4579999,115.3067
0.4589999,115.813
0.4599999,116.3193
0.4609999,116.8257
0.4619999,117.332
0.4629999,117.8383
0.4639999,118.3447
0.4649999,118.851
0.4659999,119.3573
0.4669999,119.8637
0.4679999,120.37
0.4689999,120.8763
0.4699999,121.3827
0.4709999,121.889
0.4719999,122.3953
0.4729999,122.9017
0.4739999,123.408
0.4749999,123.9143
0.4759999,124.4207
0.4769999,124.927
0.4779999,125.4333
0.4789999,125.9397
0.4799999,126.446
0.4809999,126.9524
0.4819999,127.4587
0.4829999,127.965
0.4839999,128.4714
0.4849999,128.9949
0.4859999,129.5184
0.4869999,130.042
0.4879999,130.5655
0.4889999,131.0891
0.4899999,131.6126
0.4909999,132.1362
0.4919999,132.6597
0.4929999,133.1833
0.4939999,133.7068
0.4949999,134.2303
0.4959999,134.7539
0.4969999,135.2774
0.4979999,135.801
0.4989999,136.3245
0.4999999,136.8481
0.5009999,137.3716
0.5019999,137.8952
0.5029999,138.4187
0.5039999,138.9422
0.5049999,139.4658
0.5059999,139.9893
0.5069999,140.5129
0.5079999,141.0364
0.5089999,141.56
0.5099999,142.0835
0.5109999,142.6071
0.5119999,143.1306
0.5129999,143.6541
0.5139999,144.1777
0.5149999,144.7012
0.5159999,145.2248
0.5169999,145.7483
0.5179999,146.2719
0.5189999,146.7954
0.5199999,147.319
0.5209999,147.8425
0.5219999,148.366
0.5229999,148.8896
0.5239999,149.4131
0.5249999,149.9367
0.5259999,150.4602
0.5269999,150.9838
0.5279999,151.5073
0.5289999,152.0309
0.5299999,152.5544
0.5309999,153.078
0.5319999,153.6015
0.5329999,154.125
0.5339999,154.6486
0.5349999,155.1721
0.5359999,155.6957
0.5369999,156.2192
0.5379999,156.7428
0.5389999,157.2663
0.5399999,157.7899
0.5409999,158.3134
0.5419999,158.8369
0.5429999,159.3605
0.5439999,159.884
0.5449999,160.4076
0.5459999,160.9311
0.5469999,161.4547
0.5479999,161.9782
0.5489999,162.5018
0.5499999,163.0253
0.5509999,163.5488
0.5519999,164.0724
0.5529999,164.5959
0.5539999,165.1195
0.5549999,165.643
0.5559999,166.1666
0.5569999,166.6901
0.5579999,167.2137
0.5589999,167.7372
0.5599999,168.2607
0.5609999,168.7843
0.5619999,169.3078
0.5629999,169.8314
0.5639999,170.3549
0.5649999,170.8785
0.5659999,171.402
0.5669999,171.9256
0.5679999,172.4491
0.5689999,172.9726
0.5699999,173.4962
0.5709999,174.0197
0.5719999,174.5433
0.5729999,175.0668
0.5739999,175.5904
0.5749999,176.1139
0.5759999,176.6375
0.5769999,177.161
0.5779999,177.6845
0.5789999,178.2081
0.5799999,178.7316
0.5809999,179.2552
0.5819999,179.7787
0.5829999,180.3023
0.5839999,180.8258
0.5849999,181.3494
0.5859999,181.8729
0.5869999,182.3964
0.5879999,182.92
0.5889999,183.4435
0.5899999,183.9671
0.5909999,184.4906
0.5919999,185.0142
0.5929999,185.5377
0.5939999,185.9495
0.5949999,186.3613
0.5959999,186.7731
0.5969999,187.1848
0.5979999,187.5966
0.5989999,188.0084
0.5999999,188.4202
0.6009999,188.832
0.6019999,189.2438
0.6029999,189.6555
0.6039999,190.0673
0.6049999,190.4791
0.6059999,190.8909
0.6069999,191.3027
0.6079999,191.7144
0.6089999,192.1262
0.6099999,192.538
0.6109999,192.9498
0.6119999,193.3616
0.6129999,193.7734
0.6139999,194.1851
0.6149999,194.5969
0.6159999,195.0087
0.6169999,195.4205
0.6179999,195.8323
0.6189999,196.244
0.6199999,196.6558
0.6209999,197.0676
0.6219999,197.4794
0.6229999,197.8912
0.6239999,198.303
0.6249999,198.7147
0.6259999,199.1265
0.6269999,199.5383
0.6279999,199.9501
0.6289999,200.3619
0.6299999,200.7736
0.6309999,201.1854
0.6319999,201.5972
0.6329999,202.009
0.6339999,202.4208
0.6349999,202.8326
0.6359999,203.2443
0.6369999,203.6561
0.6379999,204.0679
0.6389999,204.4797
0.6399999,204.8915
0.6409999,205.3032
0.6419999,205.715
0.6429999,206.1268
0.6439999,206.5386
0.6449999,206.9504
0.6459999,207.3622
0.6469999,207.7739
0.6479999,208.1857
0.6489999,208.5975
0.6499999,209.0093
0.6509999,209.4211
0.6519999,209.8328
0.6529999,210.2446
0.6539999,210.6564
0.6549999,211.0682
0.6559999,211.48
0.6569999,211.8917
0.6579999,212.3035
0.6589999,212.7153
0.6599999,213.1271
0.6609999,213.5389
0.6619999,213.9507
0.6629999,214.3624
0.6639999,214.7742
0.6649999,215.186
0.6659999,215.5978
0.6669999,216.0096
0.6679999,216.4213
0.6689999,216.8331
0.6699999,217.2449
0.6709999,217.6567
0.6719999,218.0685
0.6729999,218.4803
0.6739999,218.892
0.6749999,219.3038
0.6759999,219.7156
0.6769999,220.1274
0.6779999,220.5392
0.6789999,220.9509
0.6799999,221.3627
0.6809999,221.7745
0.6819999,222.1863
0.6829999,222.5981
0.6839999,223.0099
0.6849999,223.4216
0.6859999,223.8334
0.6869999,224.2452
0.6879999,224.657
0.6889999,225.0688
0.6899999,225.4805
0.6909999,225.8923
0.6919999,226.3041
0.6929999,226.7159
0.6939999,227.1277
0.6949999,227.5395
0.6959999,227.9512
0.6969999,228.363
0.6979999,228.7748
0.6989999,229.1866
0.6999999,229.5984
0.7009999,230.0101
0.7019999,230.4219
0.7029999,230.8337
0.7039999,231.1018
0.7049999,231.3699
0.7059999,231.638
0.7069999,231.9061
0.7079999,232.1742
0.7089999,232.4423
0.7099999,232.7104
0.7109999,232.9785
0.7119999,233.2466
0.7129999,233.5147
0.7139999,233.7828
0.7149999,234.0509
0.7159999,234.3189
0.7169999,234.587
0.7179999,234.8551
0.7189999,235.1232
0.7199999,235.3913
0.7209999,235.6594
0.7219999,235.9275
0.7229999,236.1956
0.7239999,236.4637
0.7249999,236.7318
0.7259999,236.9999
0.7269999,237.268
0.7279999,237.5361
0.7289999,237.8042
0.7299999,238.0722
0.7309999,238.3403
0.7319999,238.6084
0.7329999,238.8765
0.7339999,239.1446
0.7349999,239.4127
0.7359999,239.6808
0.7369999,239.9489
0.7379999,240.217
0.7389999,240.4851
0.7399999,240.7532
0.7409999,241.0213
0.7419999,241.2894
0.7429999,241.5575
0.7439999,241.8256
0.7449999,242.0936
0.7459999,242.3617
0.7469999,242.6298
0.7479999,242.8979
0.7489999,243.166
0.7499999,243.4341
0.7509999,243.7022
0.7519999,243.9703
0.7529999,244.2384
0.7539999,244.5065
0.7549999,244.7746
0.7559999,245.0427
0.7569999,245.3108
0.7579999,245.5789
0.7589999,245.8469
0.7599999,246.115
0.7609999,246.3831
0.7619999,246.6512
0.7629999,246.9193
0.7639999,247.1874
0.7649999,247.4555
0.7659999,247.7236
0.7669999,247.9917
0.7679999,248.2598
0.7689999,248.5279
0.7699999,248.796
0.7709999,249.0641
0.7719999,249.3322
0.7729999,249.6003
0.7739999,249.8683
0.7749999,250.1364
0.7759999,250.4045
0.7769999,250.6726
0.7779999,250.9407
0.7789999,251.2088
0.7799999,251.4769
0.7809999,251.745
0.7819999,252.0131
0.7829999,252.2812
0.7839999,252.5493
0.7849999,252.8174
0.7859999,253.0855
0.7869999,253.3536
0.7879999,253.6217
0.7889999,253.8897
0.7899999,254.1578
0.7909999,254.4259
0.7919999,254.694
0.7929999,254.9621
0.7939999,255.2302
0.7949999,255.4983
0.7959999,255.7664
0.7969999,256.0345
0.7979999,256.3026
0.7989999,256.5707
0.7999999,256.8388
0.8009999,257.1069
0.8019999,257.375
0.8029999,257.643
0.8039999,257.9111
0.8049999,258.1792
0.8059999,258.4473
0.8069999,258.7154
0.8079999,258.9835
0.8089999,259.2516
0.8099999,259.5197
0.8109999,259.7878
0.8119999,260.0559
0.8129999,260.2027
0.8139999,260.3496
0.8149999,260.4964
0.8159999,260.6432
0.8169999,260.79
0.8179999,260.9369
0.8189999,261.0837
0.8199999,261.2305
0.8209999,261.3774
0.8219999,261.5242
0.8229999,261.671
0.8239999,261.8178
0.8249999,261.9647
0.8259999,262.1115
0.8269999,262.2583
0.8279999,262.4052
0.8289999,262.552
0.8299999,262.6988
0.8309999,262.8456
0.8319999,262.9925
0.8329999,263.1393
0.8339999,263.2861
0.8349999,263.433
0.8359999,263.5798
0.8369999,263.7266
0.8379999,263.8735
0.8389999,264.0203
0.8399999,264.1671
0.8409999,264.3139
0.8419999,264.4608
0.8429999,264.6076
0.8439999,264.7544
0.8449999,264.9013
0.8459999,265.0481
0.8469999,265.1949
0.8479999,265.3417
0.8489999,265.4886
0.8499999,265.6354
0.8509999,265.7822
0.8519999,265.9291
0.8529999,266.0759
0.8539999,266.2227
0.8549999,266.3695
0.8559999,266.5164
0.8569999,266.6632
0.8579999,266.81
0.8589999,266.9569
0.8599999,267.1037
0.8609999,267.2505
0.8619999,267.3973
0.8629999,267.5442
0.8639999,267.691
0.8649999,267.8378
0.8659999,267.9847
0.8669999,268.1315
0.8679999,268.2783
0.8689999,268.4251
0.8699999,268.572
0.8709999,268.7188
0.8719999,268.8656
0.8729999,269.0125
0.8739999,269.1593
0.8749999,269.3061
0.8759999,269.4529
0.8769999,269.5998
0.8779999,269.7466
0.8789999,269.8934
0.8799999,270.0403
0.8809999,270.1871
0.8819999,270.3339
0.8829999,270.4807
0.8839999,270.6276
0.8849999,270.7744
0.8859999,270.9212
0.8869999,271.0681
0.8879999,271.2149
0.8889999,271.3617
0.8899999,271.5085
0.8909999,271.6554
0.8919999,271.8022
0.8929999,271.949
0.8939999,272.0959
0.8949999,272.2427
0.8959999,272.3895
0.8969999,272.5363
0.8979999,272.6832
0.8989999,272.83
0.8999999,272.9768
0.9009999,273.1237
0.9019999,273.2705
0.9029999,273.4173
0.9039999,273.5642
0.9049999,273.711
0.9059999,273.8578
0.9069999,274.0046
0.9079999,274.1515
0.9089999,274.2983
0.9099999,274.4451
0.9109999,274.592
0.9119999,274.7388
0.9129999,274.8856
0.9139999,275.0324
0.9149999,275.1793
0.9159999,275.3261
0.9169999,275.4729
0.9179999,275.6198
0.9189999,275.7666
0.9199999,275.9134
0.9209999,276.0602
0.9219999,276.1274
0.9229999,276.1946
0.9239999,276.2618
0.9249999,276.3289
0.9259999,276.3961
0.9269999,276.4633
0.9279999,276.5304
0.9289999,276.5976
0.9299999,276.6648
0.9309999,276.732
0.9319999,276.7991
0.9329999,276.8663
0.9339999,276.9335
0.9349999,277.0006
0.9359999,277.0678
0.9369999,277.135
0.9379999,277.2022
0.9389999,277.2693
0.9399999,277.3365
0.9409999,277.4037
0.9419999,277.4708
0.9429999,277.538
0.9439999,277.6052
0.9449999,277.6723
0.9459999,277.7395
0.9469999,277.8067
0.9479999,277.8739
0.9489999,277.941
0.9499999,278.0082
0.9509999,278.0754
0.9519999,278.1425
0.9529999,278.2097
0.9539999,278.2769
0.9549999,278.3441
0.9559999,278.4112
0.9569999,278.4784
0.9579999,278.5456
0.9589999,278.6127
0.9599999,278.6799
0.9609999,278.7471
0.9619999,278.8143
0.9629999,278.8814
0.9639999,278.9486
0.9649999,279.0158
0.9659999,279.0829
0.9669999,279.1501
0.9679999,279.2173
0.9689999,279.2844
0.9699999,279.3516
0.9709999,279.4188
0.9719999,279.486
0.9729999,279.5531
0.9739999,279.6203
0.9749999,279.6875
0.9759999,279.7546
0.9769999,279.8218
0.9779999,279.889
0.9789999,279.9562
0.9799999,280.0233
0.9809999,280.0905
0.9819999,280.1577
0.9829999,280.2248
0.9839999,280.292
0.9849999,280.3592
0.9859999,280.4263
0.9869999,280.4935
0.9879999,280.5607
0.9889999,280.6279
0.9899999,280.695
0.9909999,280.7622
0.9919999,280.8294
0.9929999,280.8965
0.9939999,280.9637
0.9949999,281.0309
0.9959999,281.0981
0.9969999,281.1652
0.9979999,281.2324
0.9989999,281.2996
0.9999999,281.3667
1.001,281.4339
1.002,281.5011
1.003,281.5683
1.004,281.6354
1.005,281.7026
1.006,281.7698
1.007,281.8369
1.008,281.9041
1.009,281.9713
1.01,282.0384
1.011,282.1056
1.012,282.1728
1.013,282.24
1.014,282.3071
1.015,282.3743
1.016,282.4415
1.017,282.5086
1.018,282.5758
1.019,282.643
1.02,282.7102
1.021,282.7773
1.022,282.8445
1.023,282.9117
1.024,282.9788
1.025,283.046
1.026,283.1132
1.027,283.1804
1.028,283.2475
1.029,283.3147
1.03,283.3819
1.031,283.449
1.032,283.4732
1.033,283.4973
1.034,283.5215
1.035,283.5456
1.036,283.5698
1.037,283.5939
1.038,283.618
1.039,283.6422
1.04,283.6663
1.041,283.6905
1.042,283.7146
1.043,283.7388
1.044,283.7629
1.045,283.787
1.046,283.8112
1.047,283.8353
1.048,283.8595
1.049,283.8836
1.05,283.9078
1.051,283.9319
1.052,283.9561
1.053,283.9802
1.054,284.0043
1.055,284.0285
1.056,284.0526
1.057,284.0768
1.058,284.1009
1.059,284.1251
1.06,284.1492
1.061,284.1733
1.062,284.1975
1.063,284.2216
1.064,284.2458
1.065,284.2699
1.066,284.2941
1.067,284.3182
1.068,284.3423
1.069,284.3665
1.07,284.3906
1.071,284.4148
1.072,284.4389
1.073,284.4631
1.074,284.4872
1.075,284.5114
1.076,284.5355
1.077,284.5596
1.078,284.5838
1.079,284.6079
1.08,284.6321
1.081,284.6562
1.082,284.6804
1.083,284.7045
1.084,284.7286
1.085,284.7528
1.086,284.7769
1.087,284.8011
1.088,284.8252
1.089,284.8494
1.09,284.8735
1.091,284.8977
1.092,284.9218
1.093,284.9459
1.094,284.9701
1.095,284.9942
1.096,285.0184
1.097,285.0425
1.098,285.0667
1.099,285.0908
1.1,285.1149
1.101,285.1391
1.102,285.1632
1.103,285.1874
1.104,285.2115
1.105,285.2357
1.106,285.2598
1.107,285.2839
1.108,285.3081
1.109,285.3322
1.11,285.3564
1.111,285.3805
1.112,285.4047
1.113,285.4288
1.114,285.453
1.115,285.4771
1.116,285.5012
1.117,285.5254
1.118,285.5495
1.119,285.5737
1.12,285.5978
1.121,285.622
1.122,285.6461
1.123,285.6702
1.124,285.6944
1.125,285.7185
1.126,285.7427
1.127,285.7668
1.128,285.791
1.129,285.8151
1.13,285.8393
1.131,285.8634
1.132,285.8875
1.133,285.9117
1.134,285.9358
1.135,285.96
1.136,285.9841
1.137,286.0083
1.138,286.0324
1.139,286.0565
1.14,286.0807
1.141,286.0821
1.142,286.0836
1.143,286.0851
1.144,286.0865
1.145,286.088
1.146,286.0894
1.147,286.0909
1.148,286.0923
1.149,286.0938
1.15,286.0952
1.151,286.0967
1.152,286.0982
1.153,286.0996
1.154,286.1011
1.155,286.1025
1.156,286.104
1.157,286.1054
1.158,286.1069
1.159,286.1083
1.16,286.1098
1.161,286.1113
1.162,286.1127
1.163,286.1142
1.164,286.1156
1.165,286.1171
1.166,286.1185
1.167,286.12
1.168,286.1214
1.169,286.1229
1.17,286.1244
1.171,286.1258
1.172,286.1273
1.173,286.1287
1.174,286.1302
1.175,286.1316
1.176,286.1331
1.177,286.1345
1.178,286.136
1.179,286.1375
1.18,286.1389
1.181,286.1404
1.182,286.1418
1.183,286.1433
1.184,286.1447
1.185,286.1462
1.186,286.1476
1.187,286.1491
1.188,286.1506
1.189,286.152
1.19,286.1535
1.191,286.1549
1.192,286.1564
1.193,286.1578
1.194,286.1593
1.195,286.1607
1.196,286.1622
1.197,286.1637
1.198,286.1651
1.199,286.1666
1.2,286.168
1.201,286.1695
1.202,286.1709
1.203,286.1724
1.204,286.1738
1.205,286.1753
1.206,286.1768
1.207,286.1782
1.208,286.1797
1.209,286.1811
1.21,286.1826
1.211,286.184
1.212,286.1855
1.213,286.1869
1.214,286.1884
1.215,286.1899
1.216,286.1913
1.217,286.1928
1.218,286.1942
1.219,286.1957
1.22,286.1971
1.221,286.1986
1.222,286.2
1.223,286.2015
1.224,286.203
1.225,286.2044
1.226,286.2059
1.227,286.2073
1.228,286.2088
1.229,286.2102
1.23,286.2117
1.231,286.2131
1.232,286.2146
1.233,286.2161
1.234,286.2175
1.235,286.219
1.236,286.2204
1.237,286.2219
1.238,286.2233
1.239,286.2248
1.24,286.2262
1.241,286.2277
1.242,286.2292
1.243,286.2306
1.244,286.2321
1.245,286.2335
1.246,286.235
1.247,286.2364
1.248,286.2379
1.249,286.2393
1.25,286.2408
1.251,286.2308
1.252,286.2209
1.253,286.2109
1.254,286.2009
1.255,286.1909
1.256,286.181
1.257,286.171
1.258,286.161
1.259,286.1511
1.26,286.1411
1.261,286.1311
1.262,286.1211
1.263,286.1112
1.264,286.1012
1.265,286.0912
1.266,286.0813
1.267,286.0713
1.268,286.0613
1.269,286.0513
1.27,286.0414
1.271,286.0314
1.272,286.0214
1.273,286.0115
1.274,286.0015
1.275,285.9915
1.276,285.9815
1.277,285.9716
1.278,285.9616
1.279,285.9516
1.28,285.9416
1.281,285.9317
1.282,285.9217
1.283,285.9117
1.284,285.9018
1.285,285.8918
1.286,285.8818
1.287,285.8718
1.288,285.8619
1.289,285.8519
1.29,285.8419
1.291,285.832
1.292,285.822
1.293,285.812
1.294,285.802
1.295,285.7921
1.296,285.7821
1.297,285.7721
1.298,285.7622
1.299,285.7522
1.3,285.7422
1.301,285.7322
1.302,285.7223
1.303,285.7123
1.304,285.7023
1.305,285.6924
1.306,285.6824
1.307,285.6724
1.308,285.6624
1.309,285.6525
1.31,285.6425
1.311,285.6325
1.312,285.6226
1.313,285.6126
1.314,285.6026
1.315,285.5926
1.316,285.5827
1.317,285.5727
1.318,285.5627
1.319,285.5528
1.32,285.5428
1.321,285.5328
1.322,285.5228
1.323,285.5129
1.324,285.5029
1.325,285.4929
1.326,285.483
1.327,285.473
1.328,285.463
1.329,285.453
1.33,285.4431
1.331,285.4331
1.332,285.4231
1.333,285.4131
1.334,285.4032
1.335,285.3932
1.336,285.3832
1.337,285.3733
1.338,285.3633
1.339,285.3533
1.34,285.3433
1.341,285.3334
1.342,285.3234
1.343,285.3134
1.344,285.3035
1.345,285.2935
1.346,285.2835
1.347,285.2735
1.348,285.2636
1.349,285.2536
1.35,285.2436
1.351,285.2337
1.352,285.2237
1.353,285.2137
1.354,285.2037
1.355,285.1938
1.356,285.1838
1.357,285.1738
1.358,285.1639
1.359,285.1539
1.36,285.146
1.361,285.1381
1.362,285.1301
1.363,285.1222
1.364,285.1143
1.365,285.1064
1.366,285.0985
1.367,285.0906
1.368,285.0826
1.369,285.0747
1.37,285.0668
1.371,285.0589
1.372,285.051
1.373,285.0431
1.374,285.0351
1.375,285.0272
1.376,285.0193
1.377,285.0114
1.378,285.0035
1.379,284.9956
1.38,284.9876
1.381,284.9797
1.382,284.9718
1.383,284.9639
1.384,284.956
1.385,284.9481
1.386,284.9401
1.387,284.9322
1.388,284.9243
1.389,284.9164
1.39,284.9085
1.391,284.9006
1.392,284.8927
1.393,284.8847
1.394,284.8768
1.395,284.8689
1.396,284.861
1.397,284.8531
1.398,284.8452
1.399,284.8372
1.4,284.8293
1.401,284.8214
1.402,284.8135
1.403,284.8056
1.404,284.7977
1.405,284.7897
1.406,284.7818
1.407,284.7739
1.408,284.766
1.409,284.7581
1.41,284.7502
1.411,284.7422
1.412,284.7343
1.413,284.7264
1.414,284.7185
1.415,284.7106
1.416,284.7027
1.417,284.6947
1.418,284.6868
1.419,284.6789
1.42,284.671
1.421,284.6631
1.422,284.6552
1.423,284.6472
1.424,284.6393
1.425,284.6314
1.426,284.6235
1.427,284.6156
1.428,284.6077
1.429,284.5998
1.43,284.5918
1.431,284.5839
1.432,284.576
1.433,284.5681
1.434,284.5602
1.435,284.5523
1.436,284.5443
1.437,284.5364
1.438,284.5285
1.439,284.5206
1.44,284.5127
1.441,284.5048
1.442,284.4968
1.443,284.4889
1.444,284.481
1.445,284.4731
1.446,284.4652
1.447,284.4573
1.448,284.4493
1.449,284.4414
1.45,284.4335
1.451,284.4256
1.452,284.4177
1.453,284.4098
1.454,284.4018
1.455,284.3939
1.456,284.386
1.457,284.3781
1.458,284.3702
1.459,284.3623
1.46,284.3543
1.461,284.3464
1.462,284.3385
1.463,284.3306
1.464,284.3227
1.465,284.3148
1.466,284.3069
1.467,284.2989
1.468,284.291
1.469,284.2831
1.47,284.2752
1.471,284.2673
1.472,284.2594
1.473,284.2514
1.474,284.2435
1.475,284.2356
1.476,284.2277
1.477,284.2198
1.478,284.2119
1.479,284.2039
1.48,284.196
1.481,284.1881
1.482,284.1802
1.483,284.1723
1.484,284.1644
1.485,284.1591
1.486,284.1538
1.487,284.1485
1.488,284.1432
1.489,284.1379
1.49,284.1326
1.491,284.1273
1.492,284.122
1.493,284.1167
1.494,284.1114
1.495,284.1061
1.496,284.1008
1.497,284.0955
1.498,284.0902
1.499,284.085
1.5,284.0797
1.501,284.0744
1.502,284.0691
1.503,284.0638
1.504,284.0585
1.505,284.0532
1.506,284.0479
1.507,284.0426
1.508,284.0373
1.509,284.032
1.51,284.0267
1.511,284.0214
1.512,284.0161
1.513,284.0108
1.514,284.0055
1.515,284.0002
1.516,283.995
1.517,283.9897
1.518,283.9844
1.519,283.9791
1.52,283.9738
1.521,283.9685
1.522,283.9632
1.523,283.9579
1.524,283.9526
1.525,283.9473
1.526,283.942
1.527,283.9367
1.528,283.9314
1.529,283.9261
1.53,283.9208
1.531,283.9155
1.532,283.9103
1.533,283.905
1.534,283.8997
1.535,283.8944
1.536,283.8891
1.537,283.8838
1.538,283.8785
1.539,283.8732
1.54,283.8679
1.541,283.8626
1.542,283.8573
1.543,283.852
1.544,283.8467
1.545,283.8414
1.546,283.8361
1.547,283.8308
1.548,283.8256
1.549,283.8203
1.55,283.815
1.551,283.8097
1.552,283.8044
1.553,283.7991
1.554,283.7938
1.555,283.7885
1.556,283.7832
1.557,283.7779
1.558,283.7726
1.559,283.7673
1.56,283.762
1.561,283.7567
1.562,283.7514
1.563,283.7461
1.564,283.7408
1.565,283.7356
1.566,283.7303
1.567,283.725
1.568,283.7197
1.569,283.7144
1.57,283.7091
1.571,283.7038
1.572,283.6985
1.573,283.6932
1.574,283.6879
1.575,283.6826
1.576,283.6773
1.577,283.672
1.578,283.6667
1.579,283.6614
1.58,283.6561
1.581,283.6509
1.582,283.6456
1.583,283.6403
1.584,283.635
1.585,283.6297
1.586,283.6244
1.587,283.6191
1.588,283.6138
1.589,283.6085
1.59,283.6032
1.591,283.5979
1.592,283.5926
1.593,283.5873
1.594,283.5854
1.595,283.5834
1.596,283.5815
1.597,283.5795
1.598,283.5776
1.599,283.5757
1.6,283.5737
1.601,283.5718
1.602,283.5698
1.603,283.5679
1.604,283.5659
1.605,283.564
1.606,283.562
1.607,283.5601
1.608,283.5581
1.609,283.5562
1.61,283.5542
1.611,283.5523
1.612,283.5504
1.613,283.5484
1.614,283.5465
1.615,283.5445
1.616,283.5426
1.617,283.5406
1.618,283.5387
1.619,283.5367
1.62,283.5348
1.621,283.5328
1.622,283.5309
1.623,283.5289
1.624,283.527
1.625,283.5251
1.626,283.5231
1.627,283.5212
1.628,283.5192
1.629,283.5173
1.63,283.5153
1.631,283.5134
1.632,283.5114
1.633,283.5095
1.634,283.5075
1.635,283.5056
1.636,283.5037
1.637,283.5017
1.638,283.4998
1.639,283.4978
1.64,283.4959
1.641,283.4939
1.642,283.492
1.643,283.49
1.644,283.4881
1.645,283.4861
1.646,283.4842
1.647,283.4822
1.648,283.4803
1.649,283.4784
1.65,283.4764
1.651,283.4745
1.652,283.4725
1.653,283.4706
1.654,283.4686
1.655,283.4667
1.656,283.4647
1.657,283.4628
1.658,283.4608
1.659,283.4589
1.66,283.4569
1.661,283.455
1.662,283.4531
1.663,283.4511
1.664,283.4492
1.665,283.4472
1.666,283.4453
1.667,283.4433
1.668,283.4414
1.669,283.4394
1.67,283.4375
1.671,283.4355
1.672,283.4336
1.673,283.4317
1.674,283.4297
1.675,283.4278
1.676,283.4258
1.677,283.4239
1.678,283.4219
1.679,283.42
1.68,283.418
1.681,283.4161
1.682,283.4141
1.683,283.4122
1.684,283.4102
1.685,283.4083
1.686,283.4064
1.687,283.4044
1.688,283.4025
1.689,283.4005
1.69,283.3986
1.691,283.3966
1.692,283.3947
1.693,283.3927
1.694,283.3908
1.695,283.3888
1.696,283.3869
1.697,283.3849
1.698,283.383
1.699,283.3811
1.7,283.3791
1.701,283.3772
1.702,283.3752
1.703,283.3733
1.704,283.3714
1.705,283.3695
1.706,283.3676
1.707,283.3658
1.708,283.3639
1.709,283.362
1.71,283.3601
1.711,283.3583
1.712,283.3564
1.713,283.3545
1.714,283.3526
1.715,283.3508
1.716,283.3489
1.717,283.347
1.718,283.3451
1.719,283.3433
1.72,283.3414
1.721,283.3395
1.722,283.3376
1.723,283.3358
1.724,283.3339
1.725,283.332
1.726,283.3301
1.727,283.3282
1.728,283.3264
1.729,283.3245
1.73,283.3226
1.731,283.3207
1.732,283.3189
1.733,283.317
1.734,283.3151
1.735,283.3132
1.736,283.3114
1.737,283.3095
1.738,283.3076
1.739,283.3057
1.74,283.3039
1.741,283.302
1.742,283.3001
1.743,283.2982
1.744,283.2964
1.745,283.2945
1.746,283.2926
1.747,283.2907
1.748,283.2889
1.749,283.287
1.75,283.2851
1.751,283.2832
1.752,283.2813
1.753,283.2795
1.754,283.2776
1.755,283.2757
1.756,283.2738
1.757,283.272
1.758,283.2701
1.759,283.2682
1.76,283.2663
1.761,283.2645
1.762,283.2626
1.763,283.2607
1.764,283.2588
1.765,283.257
1.766,283.2551
1.767,283.2532
1.768,283.2513
1.769,283.2495
1.77,283.2476
1.771,283.2457
1.772,283.2438
1.773,283.242
1.774,283.2401
1.775,283.2382
1.776,283.2363
1.777,283.2344
1.778,283.2326
1.779,283.2307
1.78,283.2288
1.781,283.2269
1.782,283.2251
1.783,283.2232
1.784,283.2213
1.785,283.2194
1.786,283.2176
1.787,283.2157
1.788,283.2138
1.789,283.2119
1.79,283.2101
1.791,283.2082
1.792,283.2063
1.793,283.2044
1.794,283.2026
1.795,283.2007
1.796,283.1988
1.797,283.1969
1.798,283.195
1.799,283.1932
1.8,283.1913
1.801,283.1894
1.802,283.1875
1.803,283.1857
1.804,283.1838
1.805,283.1819
1.806,283.18
1.807,283.1782
1.808,283.1763
1.809,283.1744
1.81,283.1725
1.811,283.1707
1.812,283.1688
1.813,283.1677
1.814,283.1665
1.815,283.1654
1.816,283.1643
1.817,283.1631
1.818,283.162
1.819,283.1609
1.82,283.1597
1.821,283.1586
1.822,283.1575
1.823,283.1563
1.824,283.1552
1.825,283.1541
1.826,283.1529
1.827,283.1518
1.828,283.1507
1.829,283.1495
1.83,283.1484
1.831,283.1473
1.832,283.1461
1.833,283.145
1.834,283.1439
1.835,283.1427
1.836,283.1416
1.837,283.1405
1.838,283.1393
1.839,283.1382
1.84,283.1371
1.841,283.1359
1.842,283.1348
1.843,283.1337
1.844,283.1325
1.845,283.1314
1.846,283.1303
1.847,283.1291
1.848,283.128
1.849,283.1269
1.85,283.1257
1.851,283.1246
1.852,283.1235
1.853,283.1223
1.854,283.1212
1.855,283.1201
1.856,283.1189
1.857,283.1178
1.858,283.1167
1.859,283.1155
1.86,283.1144
1.861,283.1133
1.862,283.1121
1.863,283.111
1.864,283.1099
1.865,283.1087
1.866,283.1076
1.867,283.1065
1.868,283.1053
1.869,283.1042
1.87,283.1031
1.871,283.102
1.872,283.1008
1.873,283.0997
1.874,283.0986
1.875,283.0974
1.876,283.0963
1.877,283.0952
1.878,283.094
1.879,283.0929
1.88,283.0918
1.881,283.0906
1.882,283.0895
1.883,283.0884
1.884,283.0872
1.885,283.0861
1.886,283.085
1.887,283.0838
1.888,283.0827
1.889,283.0816
1.89,283.0804
1.891,283.0793
1.892,283.0782
1.893,283.077
1.894,283.0759
1.895,283.0748
1.896,283.0736
1.897,283.0725
1.898,283.0714
1.899,283.0702
1.9,283.0691
1.901,283.068
1.902,283.0668
1.903,283.0657
1.904,283.0646
1.905,283.0634
1.906,283.0623
1.907,283.0612
1.908,283.06
1.909,283.0589
1.91,283.0578
1.911,283.0566
1.912,283.0555
1.913,283.0544
1.914,283.0532
1.915,283.0521
1.916,283.051
1.917,283.0498
1.918,283.0487
1.919,283.0476
1.92,283.0464
1.921,283.0453
1.922,283.0442
1.923,283.043
1.924,283.0419
1.925,283.0408
1.926,283.0396
1.927,283.0385
1.928,283.0374
1.929,283.0362
1.93,283.0351
1.931,283.034
1.932,283.0329
1.933,283.0317
1.934,283.0306
1.935,283.0295
1.936,283.0283
1.937,283.0272
1.938,283.0271
1.939,283.0271
1.94,283.027
1.941,283.0269
1.942,283.0269
1.943,283.0268
1.944,283.0268
1.945,283.0267
1.946,283.0266
1.947,283.0266
1.948,283.0265
1.949,283.0264
1.95,283.0264
1.951,283.0263
1.952,283.0263
1.953,283.0262
1.954,283.0261
1.955,283.0261
1.956,283.026
1.957,283.0259
1.958,283.0259
1.959,283.0258
1.96,283.0258
1.961,283.0257
1.962,283.0256
1.963,283.0256
1.964,283.0255
1.965,283.0254
1.966,283.0254
1.967,283.0253
1.968,283.0253
1.969,283.0252
1.97,283.0251
1.971,283.0251
1.972,283.025
1.973,283.025
1.974,283.0249
1.975,283.0248
1.976,283.0248
1.977,283.0247
1.978,283.0246
1.979,283.0246
1.98,283.0245
1.981,283.0245
1.982,283.0244
1.983,283.0243
1.984,283.0243
1.985,283.0242
1.986,283.0241
1.987,283.0241
1.988,283.024
1.989,283.024
1.99,283.0239
1.991,283.0238
1.992,283.0238
1.993,283.0237
1.994,283.0236
1.995,283.0236
1.996,283.0235
1.997,283.0235
1.998,283.0234
1.999,283.0233
2,283.0233
2.001,283.0232
2.002,283.0231
2.003,283.0231
2.004,283.023
2.005,283.023
2.006,283.0229
2.007,283.0228
2.008,283.0228
2.009,283.0227
2.01,283.0227
2.011,283.0226
2.012,283.0225
2.013,283.0225
2.014,283.0224
2.015,283.0223
2.016,283.0223
2.017,283.0222
2.018,283.0222
2.019,283.0221
2.02,283.022
2.021,283.022
2.022,283.0219
2.023,283.0218
2.024,283.0218
2.025,283.0217
2.026,283.0217
2.027,283.0216
2.028,283.0215
2.029,283.0215
2.03,283.0214
2.031,283.0213
2.032,283.0213
2.033,283.0212
2.034,283.0212
2.035,283.0211
2.036,283.021
2.037,283.021
2.038,283.0209
2.039,283.0208
2.04,283.0208
2.041,283.0207
2.042,283.0207
2.043,283.0206
2.044,283.0205
2.045,283.0205
2.046,283.0204
2.047,283.0178
2.048,283.0153
2.049,283.0127
2.05,283.0101
2.051,283.0076
2.052,283.005
2.053,283.0024
2.054,282.9998
2.055,282.9973
2.056,282.9947
2.057,282.9921
2.058,282.9896
2.059,282.987
2.06,282.9844
2.061,282.9818
2.062,282.9793
2.063,282.9767
2.064,282.9741
2.065,282.9716
2.066,282.969
2.067,282.9664
2.068,282.9638
2.069,282.9613
2.07,282.9587
2.071,282.9561
2.072,282.9536
2.073,282.951
2.074,282.9484
2.075,282.9458
2.076,282.9433
2.077,282.9407
2.078,282.9381
2.079,282.9356
2.08,282.933
2.081,282.9304
2.082,282.9278
2.083,282.9253
2.084,282.9227
2.085,282.9201
2.086,282.9176
2.087,282.915
2.088,282.9124
2.089,282.9098
2.09,282.9073
2.091,282.9047
2.092,282.9021
2.093,282.8996
2.094,282.897
2.095,282.8944
2.096,282.8918
2.097,282.8893
2.098,282.8867
2.099,282.8841
2.1,282.8815
2.101,282.879
2.102,282.8764
2.103,282.8738
2.104,282.8713
2.105,282.8687
2.106,282.8661
2.107,282.8635
2.108,282.861
2.109,282.8584
2.11,282.8558
2.111,282.8533
2.112,282.8507
2.113,282.8481
2.114,282.8455
2.115,282.843
2.116,282.8404
2.117,282.8378
2.118,282.8353
2.119,282.8327
2.12,282.8301
2.121,282.8275
2.122,282.825
2.123,282.8224
2.124,282.8198
2.125,282.8173
2.126,282.8147
2.127,282.8121
2.128,282.8095
2.129,282.807
2.13,282.8044
2.131,282.8018
2.132,282.7993
2.133,282.7967
2.134,282.7941
2.135,282.7915
2.136,282.789
2.137,282.7864
2.138,282.7838
2.139,282.7813
2.14,282.7787
2.141,282.7761
2.142,282.7735
2.143,282.771
2.144,282.7684
2.145,282.7658
2.146,282.7633
2.147,282.7607
2.148,282.7581
2.149,282.7555
2.15,282.753
2.151,282.7504
2.152,282.7478
2.153,282.7453
2.154,282.7427
2.155,282.7401
2.156,282.7375
2.157,282.7308
2.158,282.724
2.159,282.7173
2.16,282.7105
2.161,282.7038
2.162,282.697
2.163,282.6902
2.164,282.6835
2.165,282.6767
2.166,282.67
2.167,282.6632
2.168,282.6565
2.169,282.6497
2.17,282.6429
2.171,282.6362
2.172,282.6294
2.173,282.6227
2.174,282.6159
2.175,282.6092
2.176,282.6024
2.177,282.5957
2.178,282.5889
2.179,282.5821
2.18,282.5754
2.181,282.5686
2.182,282.5619
2.183,282.5551
2.184,282.5484
2.185,282.5416
2.186,282.5348
2.187,282.5281
2.188,282.5213
2.189,282.5146
2.19,282.5078
2.191,282.5011
2.192,282.4943
2.193,282.4875
2.194,282.4808
2.195,282.474
2.196,282.4673
2.197,282.4605
2.198,282.4538
2.199,282.447
2.2,282.4403
2.201,282.4335
2.202,282.4267
2.203,282.42
2.204,282.4132
2.205,282.4065
2.206,282.3997
2.207,282.393
2.208,282.3862
2.209,282.3794
2.21,282.3727
2.211,282.3659
2.212,282.3592
2.213,282.3524
2.214,282.3457
2.215,282.3389
2.216,282.3321
2.217,282.3254
2.218,282.3186
2.219,282.3119
2.22,282.3051
2.221,282.2984
2.222,282.2916
2.223,282.2848
2.224,282.2781
2.225,282.2713
2.226,282.2646
2.227,282.2578
2.228,282.2511
2.229,282.2443
2.23,282.2376
2.231,282.2308
2.232,282.224
2.233,282.2173
2.234,282.2105
2.235,282.2038
2.236,282.197
2.237,282.1903
2.238,282.1835
2.239,282.1767
2.24,282.17
2.241,282.1632
2.242,282.1565
2.243,282.1497
2.244,282.143
2.245,282.1362
2.246,282.1294
2.247,282.1227
2.248,282.1159
2.249,282.1092
2.25,282.1024
2.251,282.0957
2.252,282.0889
2.253,282.0822
2.254,282.0754
2.255,282.0686
2.256,282.0619
2.257,282.0551
2.258,282.0484
2.259,282.0416
2.26,282.0349
2.261,282.0281
2.262,282.0213
2.263,282.0146
2.264,282.0078
2.265,282.0011
2.266,281.9934
2.267,281.9857
2.268,281.9781
2.269,281.9704
2.27,281.9627
2.271,281.9551
2.272,281.9474
2.273,281.9397
2.274,281.9321
2.275,281.9244
2.276,281.9167
2.277,281.9091
2.278,281.9014
2.279,281.8937
2.28,281.886
2.281,281.8784
2.282,281.8707
2.283,281.863
2.284,281.8554
2.285,281.8477
2.286,281.84
2.287,281.8324
2.288,281.8247
2.289,281.817
2.29,281.8094
2.291,281.8017
2.292,281.794
2.293,281.7864
2.294,281.7787
2.295,281.771
2.296,281.7634
2.297,281.7557
2.298,281.748
2.299,281.7403
2.3,281.7327
2.301,281.725
2.302,281.7173
2.303,281.7097
2.304,281.702
2.305,281.6943
2.306,281.6867
2.307,281.679
2.308,281.6713
2.309,281.6637
2.31,281.656
2.311,281.6483
2.312,281.6407
2.313,281.633
2.314,281.6253
2.315,281.6177
2.316,281.61
2.317,281.6023
2.318,281.5946
2.319,281.587
2.32,281.5793
2.321,281.5716
2.322,281.564
2.323,281.5563
2.324,281.5486
2.325,281.541
2.326,281.5333
2.327,281.5256
2.328,281.518
2.329,281.5103
2.33,281.5026
2.331,281.495
2.332,281.4873
2.333,281.4796
2.334,281.472
2.335,281.4643
2.336,281.4566
2.337,281.4489
2.338,281.4413
2.339,281.4336
2.34,281.4259
2.341,281.4183
2.342,281.4106
2.343,281.4029
2.344,281.3953
2.345,281.3876
2.346,281.3799
2.347,281.3723
2.348,281.3646
2.349,281.3569
2.35,281.3493
2.351,281.3416
2.352,281.3339
2.353,281.3263
2.354,281.3186
2.355,281.3109
2.356,281.3032
2.357,281.2956
2.358,281.2879
2.359,281.2802
2.36,281.2726
2.361,281.2649
2.362,281.2572
2.363,281.2496
2.364,281.2419
2.365,281.2342
2.366,281.2266
2.367,281.2189
2.368,281.2112
2.369,281.2036
2.37,281.1959
2.371,281.1882
2.372,281.1806
2.373,281.1729
2.374,281.1652
2.375,281.1575
2.376,281.1517
2.377,281.1458
2.378,281.1399
2.379,281.134
2.38,281.1282
2.381,281.1223
2.382,281.1164
2.383,281.1105
2.384,281.1047
2.385,281.0988
2.386,281.0929
2.387,281.087
2.388,281.0812
2.389,281.0753
2.39,281.0694
2.391,281.0636
2.392,281.0577
2.393,281.0518
2.394,281.0459
2.395,281.0401
2.396,281.0342
2.397,281.0283
2.398,281.0224
2.399,281.0166
2.4,281.0107
2.401,281.0048
2.402,280.9989
2.403,280.9931
2.404,280.9872
2.405,280.9813
2.406,280.9754
2.407,280.9696
2.408,280.9637
2.409,280.9578
2.41,280.9519
2.411,280.9461
2.412,280.9402
2.413,280.9343
2.414,280.9284
2.415,280.9226
2.416,280.9167
2.417,280.9108
2.418,280.9049
2.419,280.8991
2.42,280.8932
2.421,280.8873
2.422,280.8814
2.423,280.8756
2.424,280.8697
2.425,280.8638
2.426,280.8579
2.427,280.8521
2.428,280.8462
2.429,280.8403
2.43,280.8344
2.431,280.8286
2.432,280.8227
2.433,280.8168
2.434,280.8109
2.435,280.8051
2.436,280.7992
2.437,280.7933
2.438,280.7874
2.439,280.7816
2.44,280.7757
2.441,280.7698
2.442,280.7639
2.443,280.7581
2.444,280.7522
2.445,280.7463
2.446,280.7404
2.447,280.7346
2.448,280.7287
2.449,280.7228
2.45,280.7169
2.451,280.7111
2.452,280.7052
2.453,280.6993
2.454,280.6934
2.455,280.6876
2.456,280.6817
2.457,280.6758
2.458,280.6699
2.459,280.6641
2.46,280.6582
2.461,280.6523
2.462,280.6464
2.463,280.6406
2.464,280.6347
2.465,280.6288
2.466,280.6229
2.467,280.6171
2.468,280.6112
2.469,280.6053
2.47,280.5994
2.471,280.5936
2.472,280.5877
2.473,280.5818
2.474,280.5759
2.475,280.5701
2.476,280.5642
2.477,280.5583
2.478,280.5524
2.479,280.5466
2.48,280.5407
2.481,280.5348
2.482,280.5289
2.483,280.5231
2.484,280.5172
2.485,280.5112
2.486,280.5052
2.487,280.4992
2.488,280.4932
2.489,280.4872
2.49,280.4813
2.491,280.4753
2.492,280.4693
2.493,280.4633
2.494,280.4573
2.495,280.4513
2.496,280.4453
2.497,280.4393
2.498,280.4333
2.499,280.4273
2.5,280.4214
2.501,280.4154
2.502,280.4094
2.503,280.4034
2.504,280.3974
2.505,280.3914
2.506,280.3854
2.507,280.3794
2.508,280.3734
2.509,280.3674
2.51,280.3615
2.511,280.3555
2.512,280.3495
2.513,280.3435
2.514,280.3375
2.515,280.3315
2.516,280.3255
2.517,280.3195
2.518,280.3135
2.519,280.3075
2.52,280.3015
2.521,280.2956
2.522,280.2896
2.523,280.2836
2.524,280.2776
2.525,280.2716
2.526,280.2656
2.527,280.2596
2.528,280.2536
2.529,280.2476
2.53,280.2416
2.531,280.2357
2.532,280.2297
2.533,280.2237
2.534,280.2177
2.535,280.2117
2.536,280.2057
2.537,280.1997
2.538,280.1937
2.539,280.1877
2.54,280.1817
2.541,280.1758
2.542,280.1698
2.543,280.1638
2.544,280.1578
2.545,280.1518
2.546,280.1458
2.547,280.1398
2.548,280.1338
2.549,280.1278
2.55,280.1218
2.551,280.1158
2.552,280.1099
2.553,280.1039
2.554,280.0979
2.555,280.0919
2.556,280.0859
2.557,280.0799
2.558,280.0739
2.559,280.0679
2.56,280.0619
2.561,280.0559
2.562,280.05
2.563,280.044
2.564,280.038
2.565,280.032
2.566,280.026
2.567,280.02
2.568,280.014
2.569,280.008
2.57,280.002
2.571,279.996
2.572,279.99
2.573,279.9841
2.574,279.9781
2.575,279.9721
2.576,279.9661
2.577,279.9601
2.578,279.9541
2.579,279.9481
2.58,279.9421
2.581,279.9361
2.582,279.9301
2.583,279.9242
2.584,279.9182
2.585,279.9122
2.586,279.9062
2.587,279.9002
2.588,279.8942
2.589,279.8882
2.59,279.8822
2.591,279.8762
2.592,279.8702
2.593,279.8643
2.594,279.8569
2.595,279.8496
2.596,279.8423
2.597,279.8349
2.598,279.8276
2.599,279.8203
2.6,279.8129
2.601,279.8056
2.602,279.7983
2.603,279.791
2.604,279.7836
2.605,279.7763
2.606,279.769
2.607,279.7616
2.608,279.7543
2.609,279.747
2.61,279.7396
2.611,279.7323
2.612,279.725
2.613,279.7177
2.614,279.7103
2.615,279.703
2.616,279.6957
2.617,279.6883
2.618,279.681
2.619,279.6737
2.62,279.6663
2.621,279.659
2.622,279.6517
2.623,279.6444
2.624,279.637
2.625,279.6297
2.626,279.6224
2.627,279.615
2.628,279.6077
2.629,279.6004
2.63,279.593
2.631,279.5857
2.632,279.5784
2.633,279.5711
2.634,279.5637
2.635,279.5564
2.636,279.5491
2.637,279.5417
2.638,279.5344
2.639,279.5271
2.64,279.5197
2.641,279.5124
2.642,279.5051
2.643,279.4978
2.644,279.4904
2.645,279.4831
2.646,279.4758
2.647,279.4684
2.648,279.4611
2.649,279.4538
2.65,279.4464
2.651,279.4391
2.652,279.4318
2.653,279.4245
2.654,279.4171
2.655,279.4098
2.656,279.4025
2.657,279.3951
2.658,279.3878
2.659,279.3805
2.66,279.3732
2.661,279.3658
2.662,279.3585
2.663,279.3512
2.664,279.3438
2.665,279.3365
2.666,279.3292
2.667,279.3218
2.668,279.3145
2.669,279.3072
2.67,279.2999
2.671,279.2925
2.672,279.2852
2.673,279.2779
2.674,279.2705
2.675,279.2632
2.676,279.2559
2.677,279.2485
2.678,279.2412
2.679,279.2339
2.68,279.2266
2.681,279.2192
2.682,279.2119
2.683,279.2046
2.684,279.1972
2.685,279.1899
2.686,279.1826
2.687,279.1752
2.688,279.1679
2.689,279.1606
2.69,279.1533
2.691,279.1459
2.692,279.1386
2.693,279.1313
2.694,279.1239
2.695,279.1166
2.696,279.1093
2.697,279.1019
2.698,279.0946
2.699,279.0873
2.7,279.08
2.701,279.0726
2.702,279.0653
2.703,279.058
2.704,279.0506
2.705,279.0433
2.706,279.036
2.707,279.0286
2.708,279.0213
2.709,279.014
2.71,279.0067
2.711,278.9993
2.712,278.992
2.713,278.9847
2.714,278.9773
2.715,278.97
2.716,278.9627
2.717,278.9553
2.718,278.948
2.719,278.939
2.72,278.93
2.721,278.921
2.722,278.912
2.723,278.903
2.724,278.894
2.725,278.885
2.726,278.8761
2.727,278.8671
2.728,278.8581
2.729,278.8491
2.73,278.8401
2.731,278.8311
2.732,278.8221
2.733,278.8131
2.734,278.8041
2.735,278.7951
2.736,278.7861
2.737,278.7771
2.738,278.7681
2.739,278.7591
2.74,278.7501
2.741,278.7411
2.742,278.7321
2.743,278.7231
2.744,278.7141
2.745,278.7051
2.746,278.6961
2.747,278.6871
2.748,278.6781
2.749,278.6692
2.75,278.6602
2.751,278.6512
2.752,278.6422
2.753,278.6332
2.754,278.6242
2.755,278.6152
2.756,278.6062
2.757,278.5972
2.758,278.5882
2.759,278.5792
2.76,278.5702
2.761,278.5612
2.762,278.5522
2.763,278.5432
2.764,278.5342
2.765,278.5252
2.766,278.5162
2.767,278.5072
2.768,278.4982
2.769,278.4892
2.77,278.4802
2.771,278.4712
2.772,278.4623
2.773,278.4533
2.774,278.4443
2.775,278.4353
2.776,278.4263
2.777,278.4173
2.778,278.4083
2.779,278.3993
2.78,278.3903
2.781,278.3813
2.782,278.3723
2.783,278.3633
2.784,278.3543
2.785,278.3453
2.786,278.3363
2.787,278.3273
2.788,278.3183
2.789,278.3093
2.79,278.3003
2.791,278.2913
2.792,278.2823
2.793,278.2733
2.794,278.2643
2.795,278.2554
2.796,278.2464
2.797,278.2374
2.798,278.2284
2.799,278.2194
2.8,278.2104
2.801,278.2014
2.802,278.1924
2.803,278.1834
2.804,278.1744
2.805,278.1654
2.806,278.1564
2.807,278.1474
2.808,278.1384
2.809,278.1294
2.81,278.1204
2.811,278.1114
2.812,278.1024
2.813,278.0934
2.814,278.0844
2.815,278.0754
2.816,278.0664
2.817,278.0574
2.818,278.0485
2.819,278.0395
2.82,278.0305
2.821,278.0215
2.822,278.0125
2.823,278.0035
2.824,277.9945
2.825,277.9855
2.826,277.9765
2.827,277.9675
2.828,277.9585
2.829,277.9519
2.83,277.9452
2.831,277.9386
2.832,277.932
2.833,277.9253
2.834,277.9187
2.835,277.9121
2.836,277.9054
2.837,277.8988
2.838,277.8922
2.839,277.8856
2.84,277.8789
2.841,277.8723
2.842,277.8657
2.843,277.859
2.844,277.8524
2.845,277.8458
2.846,277.8391
2.847,277.8325
2.848,277.8259
2.849,277.8192
2.85,277.8126
2.851,277.806
2.852,277.7994
2.853,277.7927
2.854,277.7861
2.855,277.7795
2.856,277.7728
2.857,277.7662
2.858,277.7596
2.859,277.7529
2.86,277.7463
2.861,277.7397
2.862,277.733
2.863,277.7264
2.864,277.7198
2.865,277.7132
2.866,277.7065
2.867,277.6999
2.868,277.6933
2.869,277.6866
2.87,277.68
2.871,277.6734
2.872,277.6667
2.873,277.6601
2.874,277.6535
2.875,277.6469
2.876,277.6402
2.877,277.6336
2.878,277.627
2.879,277.6203
2.88,277.6137
2.881,277.6071
2.882,277.6004
2.883,277.5938
2.884,277.5872
2.885,277.5805
2.886,277.5739
2.887,277.5673
2.888,277.5607
2.889,277.554
2.89,277.5474
2.891,277.5408
2.892,277.5341
2.893,277.5275
2.894,277.5209
2.895,277.5142
2.896,277.5076
2.897,277.501
2.898,277.4943
2.899,277.4877
2.9,277.4811
2.901,277.4745
2.902,277.4678
2.903,277.4612
2.904,277.4546
2.905,277.4479
2.906,277.4413
2.907,277.4347
2.908,277.428
2.909,277.4214
2.91,277.4148
2.911,277.4081
2.912,277.4015
2.913,277.3949
2.914,277.3883
2.915,277.3816
2.916,277.375
2.917,277.3684
2.918,277.3617
2.919,277.3551
2.92,277.3485
2.921,277.3418
2.922,277.3352
2.923,277.3286
2.924,277.3219
2.925,277.3153
2.926,277.3087
2.927,277.3021
2.928,277.2954
2.929,277.2888
2.93,277.2822
2.931,277.2755
2.932,277.2689
2.933,277.2623
2.934,277.2556
2.935,277.249
2.936,277.2424
2.937,277.2357
2.938,277.2341
2.939,277.2325
2.94,277.2309
2.941,277.2292
2.942,277.2276
2.943,277.226
2.944,277.2243
2.945,277.2227
2.946,277.2211
2.947,277.2194
2.948,277.2178
2.949,277.2162
2.95,277.2145
2.951,277.2129
2.952,277.2113
2.953,277.2096
2.954,277.208
2.955,277.2064
2.956,277.2048
2.957,277.2031
2.958,277.2015
2.959,277.1999
2.96,277.1982
2.961,277.1966
2.962,277.195
2.963,277.1933
2.964,277.1917
2.965,277.1901
2.966,277.1884
2.967,277.1868
2.968,277.1852
2.969,277.1836
2.97,277.1819
2.971,277.1803
2.972,277.1787
2.973,277.177
2.974,277.1754
2.975,277.1738
2.976,277.1721
2.977,277.1705
2.978,277.1689
2.979,277.1672
2.98,277.1656
2.981,277.164
2.982,277.1623
2.983,277.1607
2.984,277.1591
2.985,277.1575
2.986,277.1558
2.987,277.1542
2.988,277.1526
2.989,277.1509
2.99,277.1493
2.991,277.1477
2.992,277.146
2.993,277.1444
2.994,277.1428
2.995,277.1411
2.996,277.1395
2.997,277.1379
2.998,277.1362
2.999,277.1346
3,277.133
3.001,277.1314
3.002,277.1297
3.003,277.1281
3.004,277.1265
3.005,277.1248
3.006,277.1232
3.007,277.1216
3.008,277.1199
3.009,277.1183
3.01,277.1167
3.011,277.115
3.012,277.1134
3.013,277.1118
3.014,277.1102
3.015,277.1085
3.016,277.1069
3.017,277.1053
3.018,277.1036
3.019,277.102
3.02,277.1004
3.021,277.0987
3.022,277.0971
3.023,277.0955
3.024,277.0938
3.025,277.0922
3.026,277.0906
3.027,277.0889
3.028,277.0873
3.029,277.0857
3.03,277.0841
3.031,277.0824
3.032,277.0808
3.033,277.0792
3.034,277.0775
3.035,277.0759
3.036,277.0743
3.037,277.0726
3.038,277.071
3.039,277.0694
3.04,277.0677
3.041,277.0661
3.042,277.0645
3.043,277.0628
3.044,277.0612
3.045,277.0596
3.046,277.058
3.047,277.0585
3.048,277.059
3.049,277.0596
3.05,277.0601
3.051,277.0607
3.052,277.0612
3.053,277.0618
3.054,277.0623
3.055,277.0628
3.056,277.0634
3.057,277.0639
3.058,277.0645
3.059,277.065
3.06,277.0656
3.061,277.0661
3.062,277.0667
3.063,277.0672
3.064,277.0677
3.065,277.0683
3.066,277.0688
3.067,277.0694
3.068,277.0699
3.069,277.0705
3.07,277.071
3.071,277.0715
3.072,277.0721
3.073,277.0726
3.074,277.0732
3.075,277.0737
3.076,277.0743
3.077,277.0748
3.078,277.0754
3.079,277.0759
3.08,277.0764
3.081,277.077
3.082,277.0775
3.083,277.0781
3.084,277.0786
3.085,277.0792
3.086,277.0797
3.087,277.0803
3.088,277.0808
3.089,277.0813
3.09,277.0819
3.091,277.0824
3.092,277.083
3.093,277.0835
3.094,277.0841
3.095,277.0846
3.096,277.0851
3.097,277.0857
3.098,277.0862
3.099,277.0868
3.1,277.0873
3.101,277.0879
3.102,277.0884
3.103,277.089
3.104,277.0895
3.105,277.09
3.106,277.0906
3.107,277.0911
3.108,277.0917
3.109,277.0922
3.11,277.0928
3.111,277.0933
3.112,277.0938
3.113,277.0944
3.114,277.0949
3.115,277.0955
3.116,277.096
3.117,277.0966
3.118,277.0971
3.119,277.0977
3.12,277.0982
3.121,277.0987
3.122,277.0993
3.123,277.0998
3.124,277.1004
3.125,277.1009
3.126,277.1015
3.127,277.102
3.128,277.1025
3.129,277.1031
3.13,277.1036
3.131,277.1042
3.132,277.1047
3.133,277.1053
3.134,277.1058
3.135,277.1064
3.136,277.1069
3.137,277.1074
3.138,277.108
3.139,277.1085
3.14,277.1091
3.141,277.1096
3.142,277.1102
3.143,277.1107
3.144,277.1112
3.145,277.1118
3.146,277.1123
3.147,277.1129
3.148,277.1134
3.149,277.114
3.15,277.1145
3.151,277.1151
3.152,277.1156
3.153,277.1161
3.154,277.1167
3.155,277.1172
3.156,277.1178
3.157,277.1164
3.158,277.1151
3.159,277.1137
3.16,277.1123
3.161,277.111
3.162,277.1096
3.163,277.1083
3.164,277.1069
3.165,277.1055
3.166,277.1042
3.167,277.1028
3.168,277.1015
3.169,277.1001
3.17,277.0987
3.171,277.0974
3.172,277.096
3.173,277.0947
3.174,277.0933
3.175,277.0919
3.176,277.0906
3.177,277.0892
3.178,277.0879
3.179,277.0865
3.18,277.0851
3.181,277.0838
3.182,277.0824
3.183,277.0811
3.184,277.0797
3.185,277.0783
3.186,277.077
3.187,277.0756
3.188,277.0743
3.189,277.0729
3.19,277.0715
3.191,277.0702
3.192,277.0688
3.193,277.0675
3.194,277.0661
3.195,277.0647
3.196,277.0634
3.197,277.062
3.198,277.0607
3.199,277.0593
3.2,277.0579
3.201,277.0566
3.202,277.0552
3.203,277.0539
3.204,277.0525
3.205,277.0511
3.206,277.0498
3.207,277.0484
3.208,277.0471
3.209,277.0457
3.21,277.0443
3.211,277.043
3.212,277.0416
3.213,277.0403
3.214,277.0389
3.215,277.0375
3.216,277.0362
3.217,277.0348
3.218,277.0335
3.219,277.0321
3.22,277.0307
3.221,277.0294
3.222,277.028
3.223,277.0267
3.224,277.0253
3.225,277.0239
3.226,277.0226
3.227,277.0212
3.228,277.0199
3.229,277.0185
3.23,277.0171
3.231,277.0158
3.232,277.0144
3.233,277.0131
3.234,277.0117
3.235,277.0103
3.236,277.009
3.237,277.0076
3.238,277.0063
3.239,277.0049
3.24,277.0035
3.241,277.0022
3.242,277.0008
3.243,276.9995
3.244,276.9981
3.245,276.9967
3.246,276.9954
3.247,276.994
3.248,276.9927
3.249,276.9913
3.25,276.9899
3.251,276.9886
3.252,276.9872
3.253,276.9859
3.254,276.9845
3.255,276.9831
3.256,276.9818
3.257,276.9804
3.258,276.9791
3.259,276.9777
3.26,276.9763
3.261,276.975
3.262,276.9736
3.263,276.9723
3.264,276.9709
3.265,276.9695
3.266,276.9644
3.267,276.9593
3.268,276.9542
3.269,276.9491
3.27,276.944
3.271,276.9389
3.272,276.9338
3.273,276.9287
3.274,276.9236
3.275,276.9185
3.276,276.9134
3.277,276.9083
3.278,276.9032
3.279,276.8981
3.28,276.893
3.281,276.8879
3.282,276.8828
3.283,276.8777
3.284,276.8726
3.285,276.8675
3.286,276.8624
3.287,276.8573
3.288,276.8522
3.289,276.8471
3.29,276.842
3.291,276.8369
3.292,276.8318
3.293,276.8267
3.294,276.8216
3.295,276.8165
3.296,276.8114
3.297,276.8063
3.298,276.8012
3.299,276.7961
3.3,276.791
3.301,276.7859
3.302,276.7808
3.303,276.7757
3.304,276.7706
3.305,276.7655
3.306,276.7604
3.307,276.7553
3.308,276.7502
3.309,276.7451
3.31,276.74
3.311,276.7349
3.312,276.7298
3.313,276.7247
3.314,276.7196
3.315,276.7145
3.316,276.7094
3.317,276.7043
3.318,276.6992
3.319,276.6941
3.32,276.689
3.321,276.6839
3.322,276.6788
3.323,276.6737
3.324,276.6686
3.325,276.6635
3.326,276.6584
3.327,276.6533
3.328,276.6482
3.329,276.6431
3.33,276.638
3.331,276.6329
3.332,276.6278
3.333,276.6227
3.334,276.6176
3.335,276.6125
3.336,276.6074
3.337,276.6023
3.338,276.5972
3.339,276.5921
3.34,276.587
3.341,276.5819
3.342,276.5768
3.343,276.5717
3.344,276.5666
3.345,276.5615
3.346,276.5564
3.347,276.5513
3.348,276.5462
3.349,276.5411
3.35,276.536
3.351,276.5309
3.352,276.5258
3.353,276.5207
3.354,276.5156
3.355,276.5105
3.356,276.5054
3.357,276.5003
3.358,276.4952
3.359,276.4901
3.36,276.485
3.361,276.4799
3.362,276.4748
3.363,276.4697
3.364,276.4646
3.365,276.4595
3.366,276.4544
3.367,276.4493
3.368,276.4442
3.369,276.4391
3.37,276.434
3.371,276.4289
3.372,276.4238
3.373,276.4187
3.374,276.4136
3.375,276.4085
3.376,276.4032
3.377,276.398
3.378,276.3927
3.379,276.3875
3.38,276.3822
3.381,276.3769
3.382,276.3717
3.383,276.3664
3.384,276.3612
3.385,276.3559
3.386,276.3506
3.387,276.3454
3.388,276.3401
3.389,276.3349
3.39,276.3296
3.391,276.3243
3.392,276.3191
3.393,276.3138
3.394,276.3086
3.395,276.3033
3.396,276.298
3.397,276.2928
3.398,276.2875
3.399,276.2823
3.4,276.277
3.401,276.2717
3.402,276.2665
3.403,276.2612
3.404,276.256
3.405,276.2507
3.406,276.2454
3.407,276.2402
3.408,276.2349
3.409,276.2297
3.41,276.2244
3.411,276.2191
3.412,276.2139
3.413,276.2086
3.414,276.2034
3.415,276.1981
3.416,276.1928
3.417,276.1876
3.418,276.1823
3.419,276.1771
3.42,276.1718
3.421,276.1665
3.422,276.1613
3.423,276.156
3.424,276.1508
3.425,276.1455
3.426,276.1402
3.427,276.135
3.428,276.1297
3.429,276.1245
3.43,276.1192
3.431,276.1139
3.432,276.1087
3.433,276.1034
3.434,276.0982
3.435,276.0929
3.436,276.0876
3.437,276.0824
3.438,276.0771
3.439,276.0718
3.44,276.0666
3.441,276.0613
3.442,276.0561
3.443,276.0508
3.444,276.0455
3.445,276.0403
3.446,276.035
3.447,276.0298
3.448,276.0245
3.449,276.0192
3.45,276.014
3.451,276.0087
3.452,276.0035
3.453,275.9982
3.454,275.9929
3.455,275.9877
3.456,275.9824
3.457,275.9772
3.458,275.9719
3.459,275.9666
3.46,275.9614
3.461,275.9561
3.462,275.9509
3.463,275.9456
3.464,275.9403
3.465,275.9351
3.466,275.9298
3.467,275.9246
3.468,275.9193
3.469,275.914
3.47,275.9088
3.471,275.9035
3.472,275.8983
3.473,275.893
3.474,275.8877
3.475,275.8825
3.476,275.8772
3.477,275.872
3.478,275.8667
3.479,275.8614
3.48,275.8562
3.481,275.8509
3.482,275.8457
3.483,275.8404
3.484,275.8351
3.485,275.8307
3.486,275.8262
3.487,275.8217
3.488,275.8172
3.489,275.8127
3.49,275.8082
3.491,275.8038
3.492,275.7993
3.493,275.7948
3.494,275.7903
3.495,275.7858
3.496,275.7814
3.497,275.7769
3.498,275.7724
3.499,275.7679
3.5,275.7634
3.501,275.7589
3.502,275.7545
3.503,275.75
3.504,275.7455
3.505,275.741
3.506,275.7365
3.507,275.732
3.508,275.7276
3.509,275.7231
3.51,275.7186
3.511,275.7141
3.512,275.7096
3.513,275.7051
3.514,275.7007
3.515,275.6962
3.516,275.6917
3.517,275.6872
3.518,275.6827
3.519,275.6782
3.52,275.6738
3.521,275.6693
3.522,275.6648
3.523,275.6603
3.524,275.6558
3.525,275.6513
3.526,275.6469
3.527,275.6424
3.528,275.6379
3.529,275.6334
3.53,275.6289
3.531,275.6245
3.532,275.62
3.533,275.6155
3.534,275.611
3.535,275.6065
3.536,275.602
3.537,275.5976
3.538,275.5931
3.539,275.5886
3.54,275.5841
3.541,275.5796
3.542,275.5751
3.543,275.5707
3.544,275.5662
3.545,275.5617
3.546,275.5572
3.547,275.5527
3.548,275.5482
3.549,275.5438
3.55,275.5393
3.551,275.5348
3.552,275.5303
3.553,275.5258
3.554,275.5213
3.555,275.5169
3.556,275.5124
3.557,275.5079
3.558,275.5034
3.559,275.4989
3.56,275.4945
3.561,275.49
3.562,275.4855
3.563,275.481
3.564,275.4765
3.565,275.472
3.566,275.4676
3.567,275.4631
3.568,275.4586
3.569,275.4541
3.57,275.4496
3.571,275.4451
3.572,275.4407
3.573,275.4362
3.574,275.4317
3.575,275.4272
3.576,275.4227
3.577,275.4182
3.578,275.4138
3.579,275.4093
3.58,275.4048
3.581,275.4003
3.582,275.3958
3.583,275.3913
3.584,275.3869
3.585,275.3824
3.586,275.3779
3.587,275.3734
3.588,275.3689
3.589,275.3644
3.59,275.36
3.591,275.3555
3.592,275.351
3.593,275.3465
3.594,275.3407
3.595,275.3349
3.596,275.329
3.597,275.3232
3.598,275.3174
3.599,275.3115
3.6,275.3057
3.601,275.2999
3.602,275.294
3.603,275.2882
3.604,275.2824
3.605,275.2765
3.606,275.2707
3.607,275.2649
3.608,275.2591
3.609,275.2532
3.61,275.2474
3.611,275.2416
3.612,275.2357
3.613,275.2299
3.614,275.2241
3.615,275.2182
3.616,275.2124
3.617,275.2066
3.618,275.2007
3.619,275.1949
3.62,275.1891
3.621,275.1833
3.622,275.1774
3.623,275.1716
3.624,275.1658
3.625,275.1599
3.626,275.1541
3.627,275.1483
3.628,275.1424
3.629,275.1366
3.63,275.1308
3.631,275.1249
3.632,275.1191
3.633,275.1133
3.634,275.1075
3.635,275.1016
3.636,275.0958
3.637,275.09
3.638,275.0841
3.639,275.0783
3.64,275.0725
3.641,275.0666
3.642,275.0608
3.643,275.055
3.644,275.0491
3.645,275.0433
3.646,275.0375
3.647,275.0316
3.648,275.0258
3.649,275.02
3.65,275.0142
3.651,275.0083
3.652,275.0025
3.653,274.9967
3.654,274.9908
3.655,274.985
3.656,274.9792
3.657,274.9733
3.658,274.9675
3.659,274.9617
3.66,274.9558
3.661,274.95
3.662,274.9442
3.663,274.9384
3.664,274.9325
3.665,274.9267
3.666,274.9209
3.667,274.915
3.668,274.9092
3.669,274.9034
3.67,274.8975
3.671,274.8917
3.672,274.8859
3.673,274.88
3.674,274.8742
3.675,274.8684
3.676,274.8626
3.677,274.8567
3.678,274.8509
3.679,274.8451
3.68,274.8392
3.681,274.8334
3.682,274.8276
3.683,274.8217
3.684,274.8159
3.685,274.8101
3.686,274.8042
3.687,274.7984
3.688,274.7926
3.689,274.7868
3.69,274.7809
3.691,274.7751
3.692,274.7693
3.693,274.7634
3.694,274.7576
3.695,274.7518
3.696,274.7459
3.697,274.7401
3.698,274.7343
3.699,274.7284
3.7,274.7226
3.701,274.7168
3.702,274.7109
3.703,274.7051
3.704,274.6993
3.705,274.6935
3.706,274.6876
3.707,274.6818
3.708,274.676
3.709,274.6701
3.71,274.6643
3.711,274.6585
3.712,274.6526
3.713,274.6468
3.714,274.641
3.715,274.6351
3.716,274.6293
3.717,274.6235
3.718,274.6177
3.719,274.6089
3.72,274.6002
3.721,274.5915
3.722,274.5828
3.723,274.5741
3.724,274.5653
3.725,274.5566
3.726,274.5479
3.727,274.5392
3.728,274.5305
3.729,274.5217
3.73,274.513
3.731,274.5043
3.732,274.4956
3.733,274.4869
3.734,274.4781
3.735,274.4694
3.736,274.4607
3.737,274.452
3.738,274.4433
3.739,274.4345
3.74,274.4258
3.741,274.4171
3.742,274.4084
3.743,274.3997
3.744,274.391
3.745,274.3822
3.746,274.3735
3.747,274.3648
3.748,274.3561
3.749,274.3474
3.75,274.3386
3.751,274.3299
3.752,274.3212
3.753,274.3125
3.754,274.3038
3.755,274.295
3.756,274.2863
3.757,274.2776
3.758,274.2689
3.759,274.2602
3.76,274.2514
3.761,274.2427
3.762,274.234
3.763,274.2253
3.764,274.2166
3.765,274.2078
3.766,274.1991
3.767,274.1904
3.768,274.1817
3.769,274.173
3.77,274.1643
3.771,274.1555
3.772,274.1468
3.773,274.1381
3.774,274.1294
3.775,274.1207
3.776,274.1119
3.777,274.1032
3.778,274.0945
3.779,274.0858
3.78,274.0771
3.781,274.0683
3.782,274.0596
3.783,274.0509
3.784,274.0422
3.785,274.0335
3.786,274.0247
3.787,274.016
3.788,274.0073
3.789,273.9986
3.79,273.9899
3.791,273.9811
3.792,273.9724
3.793,273.9637
3.794,273.955
3.795,273.9463
3.796,273.9375
3.797,273.9288
3.798,273.9201
3.799,273.9114
3.8,273.9027
3.801,273.894
3.802,273.8852
3.803,273.8765
3.804,273.8678
3.805,273.8591
3.806,273.8504
3.807,273.8416
3.808,273.8329
3.809,273.8242
3.81,273.8155
3.811,273.8068
3.812,273.798
3.813,273.7893
3.814,273.7806
3.815,273.7719
3.816,273.7632
3.817,273.7544
3.818,273.7457
3.819,273.737
3.82,273.7283
3.821,273.7196
3.822,273.7108
3.823,273.7021
3.824,273.6934
3.825,273.6847
3.826,273.676
3.827,273.6672
3.828,273.6585
3.829,273.6408
3.83,273.6231
3.831,273.6053
3.832,273.5876
3.833,273.5699
3.834,273.5521
3.835,273.5344
3.836,273.5167
3.837,273.4989
3.838,273.4812
3.839,273.4635
3.84,273.4458
3.841,273.428
3.842,273.4103
3.843,273.3926
3.844,273.3748
3.845,273.3571
3.846,273.3394
3.847,273.3216
3.848,273.3039
3.849,273.2862
3.85,273.2684
3.851,273.2507
3.852,273.233
3.853,273.2152
3.854,273.1975
3.855,273.1798
3.856,273.1621
3.857,273.1443
3.858,273.1266
3.859,273.1089
3.86,273.0911
3.861,273.0734
3.862,273.0557
3.863,273.0379
3.864,273.0202
3.865,273.0025
3.866,272.9847
3.867,272.967
3.868,272.9493
3.869,272.9315
3.87,272.9138
3.871,272.8961
3.872,272.8784
3.873,272.8606
3.874,272.8429
3.875,272.8252
3.876,272.8074
3.877,272.7897
3.878,272.772
3.879,272.7542
3.88,272.7365
3.881,272.7188
3.882,272.701
3.883,272.6833
3.884,272.6656
3.885,272.6478
3.886,272.6301
3.887,272.6124
3.888,272.5947
3.889,272.5769
3.89,272.5592
3.891,272.5415
3.892,272.5237
3.893,272.506
3.894,272.4883
3.895,272.4705
3.896,272.4528
3.897,272.4351
3.898,272.4173
3.899,272.3996
3.9,272.3819
3.901,272.3641
3.902,272.3464
3.903,272.3287
3.904,272.311
3.905,272.2932
3.906,272.2755
3.907,272.2578
3.908,272.24
3.909,272.2223
3.91,272.2046
3.911,272.1868
3.912,272.1691
3.913,272.1514
3.914,272.1336
3.915,272.1159
3.916,272.0982
3.917,272.0804
3.918,272.0627
3.919,272.045
3.92,272.0273
3.921,272.0095
3.922,271.9918
3.923,271.9741
3.924,271.9563
3.925,271.9386
3.926,271.9209
3.927,271.9031
3.928,271.8854
3.929,271.8677
3.93,271.8499
3.931,271.8322
3.932,271.8145
3.933,271.7967
3.934,271.779
3.935,271.7613
3.936,271.7436
3.937,271.7258
3.938,271.7081
3.939,271.6904
3.94,271.6726
3.941,271.6549
3.942,271.6372
3.943,271.6194
3.944,271.6017
3.945,271.584
3.946,271.5662
3.947,271.5485
3.948,271.5308
3.949,271.513
3.95,271.4953
3.951,271.4776
3.952,271.4599
3.953,271.4421
3.954,271.3851
3.955,271.328
3.956,271.2709
3.957,271.2139
3.958,271.1568
3.959,271.0998
3.96,271.0427
3.961,270.9857
3.962,270.9286
3.963,270.8715
3.964,270.8145
3.965,270.7574
3.966,270.7004
3.967,270.6433
3.968,270.5862
3.969,270.5292
3.97,270.4721
3.971,270.4151
3.972,270.358
3.973,270.3009
3.974,270.2439
3.975,270.1868
3.976,270.1298
3.977,270.0727
3.978,270.0156
3.979,269.9586
3.98,269.9015
3.981,269.8445
3.982,269.7874
3.983,269.7303
3.984,269.6733
3.985,269.6162
3.986,269.5592
3.987,269.5021
3.988,269.445
3.989,269.388
3.99,269.3309
3.991,269.2739
3.992,269.2168
3.993,269.1597
3.994,269.1027
3.995,269.0456
3.996,268.9886
3.997,268.9315
3.998,268.8745
3.999,268.8174
4,268.7603
4.001,268.7033
4.002,268.6462
4.003,268.5892
4.004,268.5321
4.005,268.475
4.006,268.418
4.007,268.3609
4.008,268.3039
4.009,268.2468
4.01,268.1897
4.011,268.1327
4.012,268.0756
4.013,268.0186
4.014,267.9615
4.015,267.9044
4.016,267.8474
4.017,267.7903
4.018,267.7333
4.019,267.6762
4.02,267.6191
4.021,267.5621
4.022,267.505
4.023,267.448
4.024,267.3909
4.025,267.3338
4.026,267.2768
4.027,267.2197
4.028,267.1627
4.029,267.1056
4.03,267.0485
4.031,266.9915
4.032,266.9344
4.033,266.8774
4.034,266.8203
4.035,266.7633
4.036,266.7062
4.037,266.6491
4.038,266.5921
4.039,266.535
4.04,266.478
4.041,266.4209
4.042,266.3638
4.043,266.3068
4.044,266.2497
4.045,266.1927
4.046,266.1356
4.047,266.0194
4.048,265.9032
4.049,265.787
4.05,265.6708
4.051,265.5546
4.052,265.4384
4.053,265.3222
4.054,265.206
4.055,265.0898
4.056,264.9736
4.057,264.8574
4.058,264.7412
4.059,264.625
4.06,264.5088
4.061,264.3926
4.062,264.2764
4.063,264.1602
4.064,264.044
4.065,263.9278
4.066,263.8116
4.067,263.6954
4.068,263.5792
4.069,263.463
4.07,263.3468
4.071,263.2306
4.072,263.1144
4.073,262.9982
4.074,262.882
4.075,262.7658
4.076,262.6496
4.077,262.5334
4.078,262.4172
4.079,262.301
4.08,262.1848
4.081,262.0686
4.082,261.9524
4.083,261.8362
4.084,261.72
4.085,261.6038
4.086,261.4876
4.087,261.3714
4.088,261.2552
4.089,261.139
4.09,261.0228
4.091,260.9066
4.092,260.7904
4.093,260.6742
4.094,260.558
4.095,260.4418
4.096,260.3256
4.097,260.2094
4.098,260.0932
4.099,259.977
4.1,259.8608
4.101,259.7446
4.102,259.6284
4.103,259.5122
4.104,259.396
4.105,259.2798
4.106,259.1636
4.107,259.0474
4.108,258.9312
4.109,258.815
4.11,258.6988
4.111,258.5826
4.112,258.4664
4.113,258.3502
4.114,258.234
4.115,258.1178
4.116,258.0016
4.117,257.8854
4.118,257.7692
4.119,257.653
4.12,257.5368
4.121,257.4206
4.122,257.3044
4.123,257.1882
4.124,257.072
4.125,256.9558
4.126,256.8396
4.127,256.7234
4.128,256.6072
4.129,256.491
4.13,256.3748
4.131,256.2586
4.132,256.1424
4.133,256.0262
4.134,255.91
4.135,255.7938
4.136,255.6776
4.137,255.5614
4.138,255.4452
4.139,255.329
4.14,255.2128
4.141,255.0966
4.142,254.9804
4.143,254.8642
4.144,254.748
4.145,254.6318
4.146,254.5156
4.147,254.3994
4.148,254.2832
4.149,254.167
4.15,254.0508
4.151,253.9346
4.152,253.8184
4.153,253.7022
4.154,253.586
4.155,253.4698
4.156,253.3536
4.157,253.0994
4.158,252.8452
4.159,252.5909
4.16,252.3367
4.161,252.0825
4.162,251.8282
4.163,251.574
4.164,251.3197
4.165,251.0655
4.166,250.8113
4.167,250.557
4.168,250.3028
4.169,250.0486
4.17,249.7943
4.171,249.5401
4.172,249.2859
4.173,249.0316
4.174,248.7774
4.175,248.5232
4.176,248.2689
4.177,248.0147
4.178,247.7604
4.179,247.5062
4.18,247.252
4.181,246.9977
4.182,246.7435
4.183,246.4893
4.184,246.235
4.185,245.9808
4.186,245.7266
4.187,245.4723
4.188,245.2181
4.189,244.9638
4.19,244.7096
4.191,244.4554
4.192,244.2011
4.193,243.9469
4.194,243.6927
4.195,243.4384
4.196,243.1842
4.197,242.93
4.198,242.6757
4.199,242.4215
4.2,242.1673
4.201,241.913
4.202,241.6588
4.203,241.4045
4.204,241.1503
4.205,240.8961
4.206,240.6418
4.207,240.3876
4.208,240.1334
4.209,239.8791
4.21,239.6249
4.211,239.3707
4.212,239.1164
4.213,238.8622
4.214,238.6079
4.215,238.3537
4.216,238.0995
4.217,237.8452
4.218,237.591
4.219,237.3368
4.22,237.0825
4.221,236.8283
4.222,236.5741
4.223,236.3198
4.224,236.0656
4.225,235.8113
4.226,235.5571
4.227,235.3029
4.228,235.0486
4.229,234.7944
4.23,234.5402
4.231,234.2859
4.232,234.0317
4.233,233.7775
4.234,233.5232
4.235,233.269
4.236,233.0148
4.237,232.7605
4.238,232.5063
4.239,232.252
4.24,231.9978
4.241,231.7436
4.242,231.4893
4.243,231.2351
4.244,230.9809
4.245,230.7266
4.246,230.4724
4.247,230.2182
4.248,229.9639
4.249,229.7097
4.25,229.4554
4.251,229.2012
4.252,228.947
4.253,228.6927
4.254,228.4385
4.255,228.1843
4.256,227.93
4.257,227.6758
4.258,227.4216
4.259,227.1673
4.26,226.9131
4.261,226.6589
4.262,226.4046
4.263,226.1504
4.264,225.8961
4.265,225.6419
4.266,225.3216
4.267,225.0014
4.268,224.6811
4.269,224.3608
4.27,224.0405
4.271,223.7202
4.272,223.3999
4.273,223.0796
4.274,222.7594
4.275,222.4391
4.276,222.1188
4.277,221.7985
4.278,221.4782
4.279,221.1579
4.28,220.8377
4.281,220.5174
4.282,220.1971
4.283,219.8768
4.284,219.5565
4.285,219.2362
4.286,218.916
4.287,218.5957
4.288,218.2754
4.289,217.9551
4.29,217.6348
4.291,217.3145
4.292,216.9943
4.293,216.674
4.294,216.3537
4.295,216.0334
4.296,215.7131
4.297,215.3928
4.298,215.0725
4.299,214.7523
4.3,214.432
4.301,214.1117
4.302,213.7914
4.303,213.4711
4.304,213.1508
4.305,212.8306
4.306,212.5103
4.307,212.19
4.308,211.8697
4.309,211.5494
4.31,211.2291
4.311,210.9089
4.312,210.5886
4.313,210.2683
4.314,209.948
4.315,209.6277
4.316,209.3074
4.317,208.9872
4.318,208.6669
4.319,208.3466
4.32,208.0263
4.321,207.706
4.322,207.3857
4.323,207.0654
4.324,206.7452
4.325,206.4249
4.326,206.1046
4.327,205.7843
4.328,205.464
4.329,205.1437
4.33,204.8235
4.331,204.5032
4.332,204.1829
4.333,203.8626
4.334,203.5423
4.335,203.222
4.336,202.9018
4.337,202.5815
4.338,202.2612
4.339,201.9409
4.34,201.6206
4.341,201.3003
4.342,200.9801
4.343,200.6598
4.344,200.3395
4.345,200.0192
4.346,199.6989
4.347,199.3786
4.348,199.0583
4.349,198.7381
4.35,198.4178
4.351,198.0975
4.352,197.7772
4.353,197.4569
4.354,197.1366
4.355,196.8164
4.356,196.4961
4.357,196.1758
4.358,195.8555
4.359,195.5352
4.36,195.2149
4.361,194.8947
4.362,194.5744
4.363,194.2541
4.364,193.9338
4.365,193.6135
4.366,193.2932
4.367,192.973
4.368,192.6527
4.369,192.3324
4.37,192.0121
4.371,191.6918
4.372,191.3715
4.373,191.0512
4.374,190.731
4.375,190.4107
4.376,190.0904
4.377,189.7701
4.378,189.4498
4.379,189.1295
4.38,188.8093
4.381,188.489
4.382,188.1687
4.383,187.8484
4.384,187.5281
4.385,187.2078
4.386,186.8876
4.387,186.5673
4.388,186.247
4.389,185.9267
4.39,185.6064
4.391,185.2861
4.392,184.9659
4.393,184.6456
4.394,184.3253
4.395,184.005
4.396,183.6847
4.397,183.3644
4.398,183.0441
4.399,182.7239
4.4,182.4036
4.401,182.0833
4.402,181.763
4.403,181.4427
4.404,181.1224
4.405,180.8022
4.406,180.4819
4.407,179.9508
4.408,179.4197
4.409,178.8885
4.41,178.3574
4.411,177.8263
4.412,177.2952
4.413,176.7641
4.414,176.233
4.415,175.7019
4.416,175.1708
4.417,174.6397
4.418,174.1086
4.419,173.5775
4.42,173.0463
4.421,172.5152
4.422,171.9841
4.423,171.453
4.424,170.9219
4.425,170.3908
4.426,169.8597
4.427,169.3286
4.428,168.7975
4.429,168.2664
4.43,167.7352
4.431,167.2041
4.432,166.673
4.433,166.1419
4.434,165.6108
4.435,165.0797
4.436,164.5486
4.437,164.0175
4.438,163.4864
4.439,162.9553
4.44,162.4242
4.441,161.893
4.442,161.3619
4.443,160.8308
4.444,160.2997
4.445,159.7686
4.446,159.2375
4.447,158.7064
4.448,158.1753
4.449,157.6442
4.45,157.1131
4.451,156.5819
4.452,156.0508
4.453,155.5197
4.454,154.9886
4.455,154.4575
4.456,153.9264
4.457,153.3953
4.458,152.8642
4.459,152.3331
4.46,151.802
4.461,151.2709
4.462,150.7397
4.463,150.2086
4.464,149.6775
4.465,149.1464
4.466,148.6153
4.467,148.0842
4.468,147.5531
4.469,147.022
4.47,146.4909
4.471,145.9598
4.472,145.4286
4.473,144.8975
4.474,144.3664
4.475,143.8353
4.476,143.3042
4.477,142.7731
4.478,142.242
4.479,141.7109
4.48,141.1798
4.481,140.6487
4.482,140.1176
4.483,139.5864
4.484,139.0553
4.485,138.5242
4.486,137.9931
4.487,137.462
4.488,136.9309
4.489,136.3998
4.49,135.8687
4.491,135.3376
4.492,134.8065
4.493,134.2753
4.494,133.7442
4.495,133.2131
4.496,132.682
4.497,132.1509
4.498,131.6198
4.499,131.0887
4.5,130.5576
4.501,130.0265
4.502,129.4954
4.503,128.9643
4.504,128.4331
4.505,127.902
4.506,127.3709
4.507,126.8398
4.508,126.3087
4.509,125.7776
4.51,125.2465
4.511,124.7154
4.512,124.1843
4.513,123.6532
4.514,123.122
4.515,122.5909
4.516,122.077
4.517,121.563
4.518,121.0491
4.519,120.5351
4.52,120.0212
4.521,119.5072
4.522,118.9933
4.523,118.4793
4.524,117.9654
4.525,117.4514
4.526,116.9375
4.527,116.4235
4.528,115.9096
4.529,115.3956
4.53,114.8817
4.531,114.3677
4.532,113.8538
4.533,113.3398
4.534,112.8259
4.535,112.3119
4.536,111.798
4.537,111.284
4.538,110.7701
4.539,110.2561
4.54,109.7422
4.541,109.2282
4.542,108.7143
4.543,108.2003
4.544,107.6864
4.545,107.1724
4.546,106.6585
4.547,106.1445
4.548,105.6306
4.549,105.1166
4.55,104.6027
4.551,104.0887
4.552,103.5748
4.553,103.0608
4.554,102.5469
4.555,102.0329
4.556,101.519
4.557,101.005
4.558,100.4911
4.559,99.97712
4.56,99.46317
4.561,98.94922
4.562,98.43527
4.563,97.92132
4.564,97.40737
4.565,96.89342
4.566,96.37947
4.567,95.86552
4.568,95.35157
4.569,94.83762
4.57,94.32367
4.571,93.80972
4.572,93.29577
4.573,92.78182
4.574,92.26787
4.575,91.75391
4.576,91.23996
4.577,90.72601
4.578,90.21206
4.579,89.69811
4.58,89.18416
4.581,88.67021
4.582,88.15626
4.583,87.64231
4.584,87.12836
4.585,86.61441
4.586,86.10046
4.587,85.58651
4.588,85.07256
4.589,84.55861
4.59,84.04466
4.591,83.53071
4.592,83.01676
4.593,82.50281
4.594,81.98886
4.595,81.47491
4.596,80.96096
4.597,80.44701
4.598,79.93306
4.599,79.41911
4.6,78.90516
4.601,78.39121
4.602,77.87726
4.603,77.36331
4.604,76.84936
4.605,76.33541
4.606,75.82146
4.607,75.3075
4.608,74.79355
4.609,74.2796
4.61,73.76565
4.611,73.2517
4.612,72.73775
4.613,72.2238
4.614,71.70985
4.615,71.1959
4.616,70.68195
4.617,70.168
4.618,69.65405
4.619,69.1401
4.62,68.62615
4.621,68.1122
4.622,67.59825
4.623,67.0843
4.624,66.57035
4.625,66.0564
4.626,65.68319
4.627,65.31
4.628,64.93681
4.629,64.56362
4.63,64.19043
4.631,63.81724
4.632,63.44405
4.633,63.07086
4.634,62.69767
4.635,62.32448
4.636,61.95129
4.637,61.5781
4.638,61.20491
4.639,60.83172
4.64,60.45853
4.641,60.08533
4.642,59.71214
4.643,59.33895
4.644,58.96576
4.645,58.59257
4.646,58.21938
4.647,57.84619
4.648,57.473
4.649,57.09981
4.65,56.72662
4.651,56.35343
4.652,55.98024
4.653,55.60705
4.654,55.23386
4.655,54.86067
4.656,54.48748
4.657,54.11428
4.658,53.74109
4.659,53.3679
4.66,52.99471
4.661,52.62152
4.662,52.24833
4.663,51.87514
4.664,51.50195
4.665,51.12876
4.666,50.75557
4.667,50.38238
4.668,50.00919
4.669,49.636
4.67,49.26281
4.671,48.88962
4.672,48.51642
4.673,48.14323
4.674,47.77004
4.675,47.39685
4.676,47.02366
4.677,46.65047
4.678,46.27728
4.679,45.90409
4.68,45.5309
4.681,45.15771
4.682,44.78452
4.683,44.41133
4.684,44.03814
4.685,43.66495
4.686,43.29176
4.687,42.91857
4.688,42.54537
4.689,42.17218
4.69,41.79899
4.691,41.4258
4.692,41.05261
4.693,40.67942
4.694,40.30623
4.695,39.93304
4.696,39.55985
4.697,39.18666
4.698,38.81347
4.699,38.44028
4.7,38.06709
4.701,37.6939
4.702,37.32071
4.703,36.94752
4.704,36.57432
4.705,36.20113
4.706,35.82794
4.707,35.45475
4.708,35.08156
4.709,34.70837
4.71,34.33518
4.711,33.96199
4.712,33.5888
4.713,33.21561
4.714,32.84242
4.715,32.46923
4.716,32.09604
4.717,31.72285
4.718,31.34966
4.719,30.97646
4.72,30.60327
4.721,30.23008
4.722,29.85689
4.723,29.4837
4.724,29.11051
4.725,28.73732
4.726,28.36413
4.727,27.99094
4.728,27.61775
4.729,27.24456
4.73,26.87137
4.731,26.49818
4.732,26.12499
4.733,25.7518
4.734,25.37861
4.735,25.18878
4.736,24.99897
4.737,24.80917
4.738,24.61936
4.739,24.42955
4.74,24.23974
4.741,24.04993
4.742,23.86012
4.743,23.67031
4.744,23.4805
4.745,23.29069
4.746,23.10089
4.747,22.91108
4.748,22.72127
4.749,22.53146
4.75,22.34165
4.751,22.15184
4.752,21.96203
4.753,21.77222
4.754,21.58241
4.755,21.3926
4.756,21.2028
4.757,21.01299
4.758,20.82318
4.759,20.63337
4.76,20.44356
4.761,20.25375
4.762,20.06394
4.763,19.87413
4.764,19.68432
4.765,19.49452
4.766,19.30471
4.767,19.1149
4.768,18.92509
4.769,18.73528
4.77,18.54547
4.771,18.35566
4.772,18.16585
4.773,17.97604
4.774,17.78624
4.775,17.59643
4.776,17.40662
4.777,17.21681
4.778,17.027
4.779,16.83719
4.78,16.64738
4.781,16.45757
4.782,16.26776
4.783,16.07795
4.784,15.88815
4.785,15.69834
4.786,15.50853
4.787,15.31872
4.788,15.12891
4.789,14.9391
4.79,14.74929
4.791,14.55948
4.792,14.36967
4.793,14.17987
4.794,13.99006
4.795,13.80025
4.796,13.61044
4.797,13.42063
4.798,13.23082
4.799,13.04101
4.8,12.8512
4.801,12.66139
4.802,12.47158
4.803,12.28178
4.804,12.09197
4.805,11.90216
4.806,11.71235
4.807,11.52254
4.808,11.33273
4.809,11.14292
4.81,10.95311
4.811,10.7633
4.812,10.5735
4.813,10.38369
4.814,10.19388
4.815,10.00407
4.816,9.814259
4.817,9.624451
4.818,9.434642
4.819,9.244833
4.82,9.055024
4.821,8.865215
4.822,8.675406
4.823,8.485597
4.824,8.295788
4.825,8.105979
4.826,7.91617
4.827,7.726361
4.828,7.536552
4.829,7.346743
4.83,7.156934
4.831,6.967125
4.832,6.777316
4.833,6.587507
4.834,6.397699
4.835,6.20789
4.836,6.018081
4.837,5.828272
4.838,5.638463
4.839,5.448654
4.84,5.258845
4.841,5.069036
4.842,4.879227
4.843,4.689418
4.844,4.619274
4.845,4.549135
4.846,4.478995
4.847,4.408856
4.848,4.338716
4.849,4.268577
4.85,4.198438
4.851,4.128298
4.852,4.058159
4.853,3.988019
4.854,3.91788
4.855,3.84774
4.856,3.777601
4.857,3.707461
4.858,3.637322
4.859,3.567183
4.86,3.497043
4.861,3.426904
4.862,3.356764
4.863,3.286625
4.864,3.216485
4.865,3.146346
4.866,3.076206
4.867,3.006067
4.868,2.935927
4.869,2.865788
4.87,2.795649
4.871,2.725509
4.872,2.65537
4.873,2.58523
4.874,2.515091
4.875,2.444951
4.876,2.374812
4.877,2.304672
4.878,2.234533
4.879,2.164394
4.88,2.094254
4.881,2.024115
4.882,1.953975
4.883,1.883836
4.884,1.813696
4.885,1.743557
4.886,1.673417
4.887,1.603278
4.888,1.533138
4.889,1.462999
4.89,1.39286
4.891,1.32272
4.892,1.252581
4.893,1.182441
4.894,1.112302
4.895,1.042162
4.896,0.9720229
4.897,0.9018834
4.898,0.831744
4.899,0.7616045
4.9,0.6914651
4.901,0.6213256
4.902,0.5511862
4.903,0.4810467
4.904,0.4109072
4.905,0.3407678
4.906,0.2706283
4.907,0.2004889
4.908,0.1303494
4.909,0.06021
4.91,-0.009929453
4.911,-0.0800689
4.912,-0.1502084
4.913,-0.2203478
4.914,-0.2904873
4.915,-0.3606267
4.916,-0.4307662
4.917,-0.5009056
4.918,-0.5710451
4.919,-0.6411845
4.92,-0.711324
4.921,-0.7814634
4.922,-0.8516029
4.923,-0.9217423
4.924,-0.9918818
4.925,-1.062021
4.926,-1.132161
4.927,-1.2023
4.928,-1.27244
4.929,-1.342579
4.93,-1.412718
4.931,-1.482858
4.932,-1.552997
4.933,-1.623137
4.934,-1.693276
4.935,-1.763416
4.936,-1.833555
4.937,-1.903695
4.938,-1.973834
4.939,-2.043974
4.94,-2.114113
4.941,-2.184252
4.942,-2.254392
4.943,-2.324531
4.944,-2.394671
4.945,-2.46481
4.946,-2.53495
4.947,-2.605089
4.948,-2.675229
4.949,-2.745368
4.95,-2.815507
4.951,-2.885647
4.952,-2.955786
4.953,-3.025926
4.954,-3.046251
4.955,-3.066568
4.956,-3.086884
4.957,-3.107201
4.958,-3.127518
4.959,-3.147834
4.96,-3.168151
4.961,-3.188468
4.962,-3.208784
4.963,-3.229101
4.964,-3.249418
4.965,-3.269734
4.966,-3.290051
4.967,-3.310368
4.968,-3.330684
4.969,-3.351001
4.97,-3.371318
4.971,-3.391634
4.972,-3.411951
4.973,-3.432268
4.974,-3.452584
4.975,-3.472901
4.976,-3.493218
4.977,-3.513535
4.978,-3.533851
4.979,-3.554168
4.98,-3.574485
4.981,-3.594801
4.982,-3.615118
4.983,-3.635435
4.984,-3.655751
4.985,-3.676068
4.986,-3.696385
4.987,-3.716701
4.988,-3.737018
4.989,-3.757335
4.99,-3.777651
4.991,-3.797968
4.992,-3.818285
4.993,-3.838601
4.994,-3.858918
4.995,-3.879235
4.996,-3.899551
4.997,-3.919868
4.998,-3.940185
4.999,-3.960501
5,-3.980818
5.001,-4.001135
5.002,-4.021451
5.003,-4.041768
5.004,-4.062085
5.005,-4.082401
5.006,-4.102718
5.007,-4.123035
5.008,-4.143351
5.009,-4.163668
5.01,-4.183985
5.011,-4.204302
5.012,-4.224618
5.013,-4.244935
5.014,-4.265252
5.015,-4.285568
5.016,-4.305885
5.017,-4.326202
5.018,-4.346518
5.019,-4.366835
5.02,-4.387152
5.021,-4.407468
5.022,-4.427785
5.023,-4.448102
5.024,-4.468418
5.025,-4.488735
5.026,-4.509052
5.027,-4.529368
5.028,-4.549685
5.029,-4.570002
5.03,-4.590318
5.031,-4.610635
5.032,-4.630952
5.033,-4.651268
5.034,-4.671585
5.035,-4.691902
5.036,-4.712218
5.037,-4.732535
5.038,-4.752852
5.039,-4.773168
5.04,-4.793485
5.041,-4.813802
5.042,-4.834119
5.043,-4.854435
5.044,-4.874752
5.045,-4.895069
5.046,-4.915385
